File: 01_Data/NFPA_1981-2019_SCBA_Lens/STA/N2/10K_min/NFPA_1981-2019_SCBA_Lens_STA_N2_10KData_230604_R1.csv
Temp./C,Time/min,DSC/(mW/mg),Mass loss/mg
40.0,0.0,0.564342,-0.0187765
42.4,0.281404,0.595801,-0.018897
44.8,0.554728,0.627616,-0.0192593
47.2,0.820833,0.645513,-0.0174665
49.6,1.0822,0.666904,-0.0189013
52,1.34251,0.674354,-0.018888
54.4,1.59874,0.690007,-0.0188442
56.8,1.85134,0.70509,-0.0188937
59.2,2.09861,0.721061,-0.0190486
61.6,2.35137,0.728045,-0.0188708
64,2.5973,0.750496,-0.0175951
66.4,2.83992,0.756069,-0.0188955
68.8,3.08288,0.766612,-0.0185857
71.2,3.32422,0.785553,-0.0188676
73.6,3.56632,0.78892,-0.0188797
76,3.80364,0.79783,-0.0188143
78.4,4.04675,0.808608,-0.01889
80.8,4.28501,0.819843,-0.0189749
83.2,4.52251,0.827141,-0.0188873
85.6,4.75994,0.832875,-0.018875
88,4.99612,0.844367,-0.0175843
90.4,5.23376,0.84418,-0.0175647
92.8,5.46863,0.860065,-0.0189041
95.2,5.70372,0.862142,-0.0188908
97.6,5.93807,0.878841,-0.018889
100,6.17367,0.873544,-0.0188936
102.4,6.40891,0.889662,-0.021518
104.8,6.64251,0.899198,-0.0201852
107.2,6.87597,0.914136,-0.018895
109.6,7.10942,0.922513,-0.0188866
112,7.34251,0.932724,-0.0189052
114.4,7.57544,0.942951,-0.0188804
116.8,7.80859,0.952683,-0.0202882
119.2,8.04173,0.948865,-0.02021
121.6,8.27349,0.955987,-0.0188318
124,8.50522,0.965766,-0.0192302
126.4,8.73891,0.970713,-0.0188897
128.8,8.96898,0.97981,-0.02021
131.2,9.20137,0.981243,-0.0188888
133.6,9.43044,0.988325,-0.0192736
136,9.66395,1.00103,-0.0183547
138.4,9.894,0.988026,-0.019207
140.8,10.1246,0.995905,-0.018882
143.2,10.3551,1.00435,-0.018226
145.6,10.5827,1.01345,-0.0195402
148,10.8141,1.01372,-0.0187265
150.4,11.0441,1.01311,-0.0202039
152.8,11.2735,1.01095,-0.0188789
155.2,11.5017,1.01786,-0.0188133
157.6,11.7302,1.0271,-0.0188899
160,11.9594,1.03199,-0.0185488
162.4,12.1896,1.04096,-0.0175695
164.8,12.4169,1.04637,-0.0188978
167.2,12.6452,1.06132,-0.0201998
169.6,12.875,1.0606,-0.0182262
172,13.105,1.06792,-0.0192129
174.4,13.3328,1.07167,-0.0202101
176.8,13.5609,1.082,-0.0179244
179.2,13.7904,1.07885,-0.01954
181.6,14.0196,1.09179,-0.018873
184,14.2483,1.10398,-0.0192454
186.4,14.4767,1.10764,-0.01922
188.8,14.705,1.1226,-0.0180688
191.2,14.9336,1.13186,-0.0182301
193.6,15.1614,1.14691,-0.0182324
196,15.3897,1.17494,-0.0195402
198.4,15.6176,1.2029,-0.01955
200.8,15.8469,1.25646,-0.018672
203.2,16.0754,1.3177,-0.0198712
205.6,16.3031,1.32758,-0.01823
208,16.531,1.3131,-0.0195397
210.4,16.7585,1.3138,-0.01888
212.8,16.9862,1.30609,-0.0202039
215.2,17.2155,1.30601,-0.01954
217.6,17.443,1.30771,-0.0182288
220,17.6709,1.30896,-0.0189905
222.4,17.9005,1.31489,-0.01889
224.8,18.13,1.3144,-0.0187385
227.2,18.3541,1.31085,-0.0205294
229.6,18.5854,1.30921,-0.0202
232,18.8136,1.31056,-0.0188794
234.4,19.0419,1.30783,-0.0202004
236.8,19.2685,1.31703,-0.0192099
239.2,19.4978,1.31247,-0.0205299
241.6,19.7268,1.31506,-0.02053
244,19.9545,1.31603,-0.0201164
246.4,20.1846,1.31507,-0.01988
248.8,20.4132,1.32215,-0.0202101
251.2,20.6429,1.31941,-0.0198091
253.6,20.8708,1.32016,-0.01987
256,21.0987,1.32891,-0.01987
258.4,21.3289,1.33478,-0.0185654
260.8,21.5573,1.33887,-0.01987
263.2,21.786,1.33383,-0.0188758
265.6,22.0127,1.33755,-0.0202
268,22.2415,1.33767,-0.0202
270.4,22.4704,1.33037,-0.02086
272.8,22.6985,1.33926,-0.0202001
275.2,22.9279,1.33698,-0.0225757
277.6,23.1577,1.34096,-0.0215077
280,23.3875,1.33546,-0.0207993
282.4,23.6166,1.3351,-0.0215076
284.8,23.8473,1.33417,-0.0221192
287.2,24.0774,1.33387,-0.0212
289.6,24.309,1.33863,-0.02218
292,24.5389,1.33173,-0.02152
294.4,24.7699,1.33024,-0.02152
296.8,24.9998,1.32412,-0.0218366
299.2,25.2294,1.32532,-0.0217342
301.6,25.4606,1.32613,-0.02185
304,25.6916,1.32282,-0.02251
306.4,25.9237,1.32107,-0.0211545
308.8,26.1541,1.32324,-0.02251
311.2,26.3853,1.31391,-0.0217701
313.6,26.6161,1.31701,-0.02317
316,26.8488,1.30929,-0.02185
318.4,27.0796,1.31428,-0.0238246
320.8,27.3099,1.31635,-0.02284
323.2,27.5425,1.31806,-0.0241504
325.6,27.7744,1.30854,-0.0241514
328,28.0061,1.30417,-0.02415
330.4,28.2361,1.3033,-0.0248094
332.8,28.4696,1.29592,-0.025143
335.2,28.7027,1.28935,-0.02646
337.6,28.9314,1.29223,-0.02679
340,29.1658,1.29447,-0.025473
342.4,29.3974,1.28576,-0.02679
344.8,29.6291,1.28728,-0.0267352
347.2,29.8611,1.27638,-0.02811
349.6,30.0936,1.27295,-0.0281103
352,30.3265,1.26436,-0.0295308
354.4,30.5593,1.25806,-0.02976
356.8,30.7911,1.25971,-0.0300799
359.2,31.0256,1.26394,-0.03008
361.6,31.2569,1.25672,-0.0297424
364,31.492,1.25871,-0.0297486
366.4,31.7244,1.24953,-0.03107
368.8,31.9577,1.24368,-0.03371
371.2,32.1921,1.2415,-0.0323958
373.6,32.4256,1.24011,-0.0341155
376,32.6585,1.23936,-0.0360311
378.4,32.8921,1.2377,-0.0340449
380.8,33.1269,1.23195,-0.03678
383.2,33.3613,1.23623,-0.0380944
385.6,33.5945,1.23893,-0.0381
388,33.8263,1.25265,-0.03809
390.4,34.0638,1.25327,-0.0404186
392.8,34.2983,1.25435,-0.0410657
395.2,34.5327,1.26009,-0.0423761
397.6,34.7666,1.25677,-0.0457894
400,35.0013,1.26486,-0.0449953
402.4,35.2361,1.26106,-0.0453377
404.8,35.4712,1.26836,-0.0466573
407.2,35.705,1.26604,-0.04929
409.6,35.9412,1.2697,-0.0506801
412,36.1755,1.27078,-0.0535781
414.4,36.4119,1.2607,-0.0548907
416.8,36.647,1.26256,-0.0562099
419.2,36.8832,1.25984,-0.0562379
421.6,37.1192,1.25307,-0.0598861
424,37.3546,1.24515,-0.0654293
426.4,37.5915,1.24373,-0.0681148
428.8,37.827,1.24698,-0.069416
431.2,38.064,1.25369,-0.0734406
433.6,38.2993,1.2615,-0.0787058
436,38.5335,1.26905,-0.085309
438.4,38.7681,1.26763,-0.0914145
440.8,39.005,1.27401,-0.0999477
443.2,39.2402,1.2851,-0.109447
445.6,39.4746,1.29979,-0.12048
448,39.7138,1.30008,-0.133014
450.4,39.9507,1.31269,-0.145162
452.8,40.1857,1.31425,-0.157268
455.2,40.4254,1.32519,-0.174955
457.6,40.6644,1.3467,-0.194877
460,40.9034,1.36775,-0.216263
462.4,41.1417,1.40737,-0.240104
464.8,41.3804,1.43563,-0.268238
467.2,41.6188,1.47006,-0.30198
469.6,41.8577,1.53053,-0.341277
472,42.0937,1.61775,-0.385994
474.4,42.3332,1.68803,-0.442235
476.8,42.5698,1.69613,-0.503565
479.2,42.8093,1.81087,-0.57402
481.6,43.0487,1.8595,-0.654456
484,43.2882,1.98786,-0.746019
486.4,43.5265,1.98928,-0.846547
488.8,43.7647,2.04263,-0.958426
491.2,44.0045,2.1927,-1.08423
493.6,44.2422,2.16751,-1.2228
496,44.4822,2.26196,-1.36935
498.4,44.7226,2.35057,-1.53792
500.8,44.9636,2.38528,-1.72303
503.2,45.2026,2.37625,-1.91527
505.6,45.4417,2.32894,-2.12182
508,45.6784,2.18171,-2.32943
510.4,45.917,1.90322,-2.53345
512.8,46.1516,1.5115,-2.71311
515.2,46.3845,1.01865,-2.86631
517.6,46.6169,0.544534,-2.97818
520,46.8512,0.202333,-3.05399
522.4,47.0876,0.0267363,-3.10676
524.8,47.3253,-0.0308802,-3.13938
527.2,47.5636,-0.0562894,-3.16145
529.6,47.801,-0.0603608,-3.17591
532,48.0399,-0.0577783,-3.18734
534.4,48.2796,-0.0656291,-3.19846
536.8,48.5191,-0.0626795,-3.20706
539.2,48.7593,-0.0579855,-3.21234
541.6,48.9994,-0.0595661,-3.22064
544,49.2402,-0.0782116,-3.2253
546.4,49.4793,-0.0949372,-3.23102
548.8,49.7206,-0.0958133,-3.23602
551.2,49.9605,-0.103518,-3.23863
553.6,50.2013,-0.101084,-3.24291
556,50.4419,-0.107798,-3.24756
558.4,50.6832,-0.0958904,-3.25453
560.8,50.9252,-0.101836,-3.25714
563.2,51.1664,-0.0880035,-3.26247
565.6,51.4082,-0.0806505,-3.26638
568,51.6502,-0.081673,-3.26901
570.4,51.8927,-0.0820991,-3.27429
572.8,52.1345,-0.0867158,-3.27825
575.2,52.3762,-0.0828703,-3.27956
577.6,52.6191,-0.0887295,-3.28488
580,52.8604,-0.094261,-3.28751
582.4,53.1033,-0.0979455,-3.2901
584.8,53.3444,-0.10586,-3.29408
587.2,53.5846,-0.0971674,-3.29624
589.6,53.8263,-0.0966579,-3.30029
592,54.0648,-0.104199,-3.3036
594.4,54.3072,-0.109333,-3.30492
596.8,54.5491,-0.113556,-3.30745
599.2,54.7896,-0.103319,-3.3089
601.6,55.0328,-0.0954146,-3.31186
604,55.2732,-0.0861426,-3.31613
606.4,55.5162,-0.0649915,-3.3163
608.8,55.7581,-0.0553744,-3.31877
611.2,55.9994,-0.0441548,-3.32271
613.6,56.243,-0.0189768,-3.32403
616,56.4867,-0.00576786,-3.32567
618.4,56.7298,0.0107375,-3.32798
620.8,56.9733,0.0070652,-3.32929
623.2,57.2151,0.00538516,-3.33127
625.6,57.4572,-0.00647377,-3.3339
628,57.698,-0.0147642,-3.3339
630.4,57.9414,-0.0341481,-3.33654
632.8,58.1841,-0.0383998,-3.33652
635.2,58.4248,-0.0730034,-3.33849
637.6,58.6668,-0.0400347,-3.3405
640,58.908,-0.0361875,-3.34181
642.4,59.1497,-0.0307317,-3.34313
644.8,59.3909,-0.0288562,-3.34445
647.2,59.6318,-0.0284482,-3.34477
649.6,59.8744,-0.0312415,-3.34576
652,60.1156,-0.0370974,-3.34839
654.4,60.359,-0.0437395,-3.34971
656.8,60.6012,-0.0569478,-3.34971
659.2,60.8428,-0.0617196,-3.35101
661.6,61.0846,-0.0767522,-3.35346
664,61.3277,-0.0761055,-3.35399
666.4,61.5676,-0.0827283,-3.35532
668.8,61.8093,-0.0814337,-3.35663
671.2,62.0504,-0.0915772,-3.35894
673.6,62.2938,-0.0884527,-3.35792
676,62.5374,-0.0974177,-3.36025
678.4,62.7787,-0.104041,-3.36194
680.8,63.0238,-0.108117,-3.36148
683.2,63.2665,-0.116596,-3.36259
685.6,63.5109,-0.130906,-3.36241
688,63.7543,-0.140411,-3.3642
690.4,63.9968,-0.154188,-3.36684
692.8,64.2393,-0.153291,-3.36684
695.2,64.4823,-0.17318,-3.3675
697.6,64.7254,-0.169715,-3.36883
700,64.9692,-0.177772,-3.3706
702.4,65.2141,-0.175357,-3.37079
704.8,65.4582,-0.175808,-3.37211
707.2,65.7017,-0.177214,-3.37343
709.6,65.9467,-0.170762,-3.37409
712,66.1907,-0.159546,-3.37573
714.4,66.4341,-0.100514,-3.37804
716.8,66.6787,0.0493152,-3.37884
719.2,66.9238,0.0572593,-3.37803
721.6,67.1685,0.0623009,-3.37974
724,67.4132,0.0602062,-3.381
726.4,67.6565,0.0553283,-3.38235
728.8,67.9035,0.0661627,-3.38199
731.2,68.1483,0.0642379,-3.38133
733.6,68.3947,0.0668204,-3.38397
736,68.6406,0.054939,-3.38429
738.4,68.8882,0.0622855,-3.38561
740,69.0518,0.0650157,-3.38721