File: 01_Data/NFPA_1981-2019_SCBA_Lens/STA/N2/10K_min/NFPA_1981-2019_SCBA_Lens_STA_N2_10KData_241112_R1.csv
Temp./C,Time/min,DSC/(mW/mg),Mass loss/mg
35.0,0.0,0.724444,0.0198263
37.6,0.303108,0.778967,0.0181666
40.2,0.59772,0.814431,0.0184134
42.8,0.88531,0.842117,0.0190062
45.4,1.16844,0.864408,0.018114
48,1.45011,0.879711,0.0170199
50.6,1.72718,0.91021,0.0185763
53.2,2.00072,0.932041,0.0172397
55.8,2.27128,0.946428,0.01767
58.4,2.54101,0.974446,0.01932
61,2.80738,1.00134,0.0165858
63.6,3.07245,1.00433,0.0165685
66.2,3.33483,1.02851,0.0173063
68.8,3.59716,1.03515,0.0183399
71.4,3.85729,1.05387,0.0211903
74,4.11727,1.05981,0.0169
76.6,4.37585,1.07581,0.01647
79.2,4.6346,1.07941,0.0183292
81.8,4.8933,1.08173,0.01834
84.4,5.15026,1.10738,0.0181073
87,5.40714,1.10882,0.01602
89.6,5.66281,1.12377,0.0187802
92.2,5.91765,1.13828,0.0165385
94.8,6.17096,1.15187,0.0174543
97.4,6.42685,1.17334,0.0182305
100,6.67877,1.18699,0.0161372
102.6,6.93246,1.19693,0.0166892
105.2,7.18055,1.20998,0.01811
107.8,7.43659,1.22179,0.0170086
110.4,7.68714,1.23369,0.0178897
113,7.94224,1.24862,0.0179992
115.6,8.19514,1.25201,0.01658
118.2,8.44674,1.26828,0.0165755
120.8,8.69873,1.28497,0.01811
123.4,8.94907,1.29684,0.01811
126,9.20055,1.31437,0.0170532
128.6,9.45073,1.33749,0.0171685
131.2,9.70153,1.34282,0.01844
133.8,9.94966,1.347,0.0173543
136.4,10.2026,1.35834,0.01602
139,10.4525,1.36593,0.0148739
141.6,10.7012,1.37947,0.0174596
144.2,10.9496,1.39815,0.01888
146.8,11.1988,1.40519,0.0158251
149.4,11.4473,1.41195,0.014067
152,11.6956,1.41861,0.015041
154.6,11.9433,1.43762,0.01713
157.2,12.1917,1.45946,0.0173686
159.8,12.4393,1.46201,0.0147099
162.4,12.6847,1.46016,0.01723
165,12.9336,1.47729,0.0149202
167.6,13.1805,1.48765,0.0171408
170.2,13.4276,1.49342,0.01449
172.8,13.6747,1.50836,0.0160262
175.4,13.9227,1.52633,0.0157
178,14.1697,1.52996,0.0129511
180.6,14.415,1.53503,0.0130614
183.2,14.6617,1.54929,0.01438
185.8,14.909,1.56162,0.0128124
188.4,15.1557,1.56071,0.01624
191,15.4015,1.56291,0.01493
193.6,15.6481,1.57847,0.0160376
196.2,15.8945,1.58958,0.01339
198.8,16.1407,1.60681,0.0173522
201.4,16.3887,1.6457,0.01372
204,16.6354,1.6973,0.01438
206.6,16.8827,1.7654,0.0147098
209.2,17.1301,1.81181,0.0169806
211.8,17.3768,1.81024,0.014728
214.4,17.6233,1.81035,0.013537
217,17.87,1.80631,0.01351
219.6,18.1175,1.81992,0.0162498
222.2,18.3629,1.81609,0.0152695
224.8,18.6065,1.8284,0.01252
227.4,18.8553,1.84028,0.014467
230,19.1008,1.8428,0.0136099
232.6,19.3467,1.84192,0.0149358
235.2,19.594,1.85,0.01372
237.8,19.8393,1.84551,0.0144335
240.4,20.0861,1.84647,0.0133638
243,20.3319,1.86175,0.014356
245.6,20.5787,1.85564,0.01471
248.2,20.8242,1.85683,0.0140527
250.8,21.0704,1.86749,0.0143776
253.4,21.3177,1.87106,0.0128381
256,21.5629,1.86305,0.0132955
258.6,21.8086,1.86398,0.01394
261.2,22.0559,1.86612,0.011613
263.8,22.3027,1.86387,0.0130715
266.4,22.5501,1.86727,0.01317
269,22.7979,1.87287,0.01317
271.6,23.0439,1.87085,0.01186
274.2,23.2925,1.87002,0.0142796
276.8,23.5398,1.87648,0.01328
279.4,23.7865,1.88544,0.012177
282,24.0327,1.88211,0.0121869
284.6,24.2805,1.88603,0.0121583
287.2,24.5279,1.88292,0.01284
289.8,24.7754,1.88295,0.0133902
292.4,25.0219,1.88693,0.0165052
295,25.2704,1.87954,0.0118866
297.6,25.5185,1.88528,0.0134
300.2,25.7661,1.87127,0.0120832
302.8,26.0136,1.87674,0.0150427
305.4,26.2629,1.87109,0.0123269
308,26.5108,1.86818,0.01362
310.6,26.7593,1.88341,0.01175
313.2,27.007,1.87852,0.0117319
315.8,27.2557,1.87893,0.0115912
318.4,27.5039,1.88884,0.0131815
321,27.7531,1.88258,0.0119595
323.6,28.0008,1.89001,0.0136846
326.2,28.2499,1.88262,0.01317
328.8,28.4971,1.87557,0.0117495
331.4,28.7484,1.86997,0.0117431
334,28.9975,1.88081,0.01031
336.6,29.2494,1.87329,0.0119938
339.2,29.4977,1.86868,0.0117733
341.8,29.7468,1.86617,0.0124065
344.4,29.997,1.86357,0.01229
347,30.2481,1.86704,0.00965008
349.6,30.4978,1.85326,0.00954996
352.2,30.7487,1.85598,0.00955484
354.8,30.9987,1.8456,0.00867
357.4,31.2496,1.84077,0.00968608
360,31.5002,1.841,0.0094005
362.6,31.7501,1.82853,0.00935702
365.2,32.0006,1.82453,0.0103332
367.8,32.2511,1.82511,0.0108721
370.4,32.5023,1.81223,0.00527
373,32.7533,1.81051,0.00680993
375.6,33.0036,1.80712,0.00812016
378.2,33.2535,1.80058,0.00705255
380.8,33.5064,1.79818,0.00780176
383.4,33.7585,1.79611,0.00461
386,34.0102,1.78855,0.00395096
388.6,34.2626,1.78342,0.00592
391.2,34.5138,1.78348,0.0033
393.8,34.7657,1.77637,0.00187005
396.4,35.0181,1.76767,0.00361888
399,35.2704,1.76781,0.0023
401.6,35.5227,1.75213,-0.00287459
404.2,35.7761,1.76277,0.000288367
406.8,36.0292,1.74916,-0.0021784
409.4,36.282,1.74083,-0.0055983
412,36.5343,1.73499,-0.00583013
414.6,36.7867,1.73097,-0.00714
417.2,37.0395,1.73012,-0.00846272
419.8,37.292,1.73859,-0.00988
422.4,37.5456,1.7623,-0.011745
425,37.7978,1.80915,-0.0144053
427.6,38.0518,1.85559,-0.0183436
430.2,38.305,1.93092,-0.023487
432.8,38.5599,2.1208,-0.0253451
435.4,38.813,2.19254,-0.0287619
438,39.067,2.26025,-0.0344726
440.6,39.322,2.33672,-0.0392835
443.2,39.5768,2.39734,-0.0464637
445.8,39.8324,2.44122,-0.05028
448.4,40.0871,2.42606,-0.0667413
451,40.3419,2.33407,-0.0743298
453.6,40.5977,2.21218,-0.0882188
456.2,40.853,2.13557,-0.103147
458.8,41.1074,1.93293,-0.116042
461.4,41.3623,1.83409,-0.132826
464,41.6169,1.82247,-0.149844
466.6,41.8722,1.83999,-0.180104
469.2,42.128,1.84654,-0.201891
471.8,42.3818,1.88108,-0.241741
474.4,42.6409,1.93611,-0.278726
477,42.8956,1.96268,-0.328933
479.6,43.153,2.04233,-0.382428
482.2,43.4092,2.14478,-0.445979
484.8,43.6642,2.16434,-0.518524
487.4,43.9198,2.26986,-0.599674
490,44.1757,2.33885,-0.690011
492.6,44.4341,2.43868,-0.805551
495.2,44.6908,2.52607,-0.923692
497.8,44.9486,2.56191,-1.05674
500.4,45.2063,2.58666,-1.20588
503,45.4655,2.66524,-1.36499
505.6,45.7243,2.71913,-1.5502
508.2,45.9823,2.72695,-1.75218
510.8,46.2393,2.68716,-1.96797
513.4,46.4958,2.52153,-2.19667
516,46.749,2.22134,-2.40797
518.6,47.0003,1.76759,-2.60066
521.2,47.2519,1.27337,-2.75795
523.8,47.5037,0.846783,-2.86721
526.4,47.7562,0.593836,-2.93139
529,48.0119,0.494905,-2.98093
531.6,48.2687,0.46228,-3.00822
534.2,48.523,0.463845,-3.02987
536.8,48.7814,0.482837,-3.04932
539.4,49.0386,0.493963,-3.05766
542,49.2974,0.618053,-3.06971
544.6,49.5551,0.747812,-3.07775
547.2,49.813,0.81399,-3.08674
549.8,50.0707,0.856265,-3.09291
552.4,50.3305,0.87013,-3.09759
555,50.59,0.857016,-3.10497
557.6,50.849,0.828412,-3.11302
560.2,51.1073,0.803611,-3.11784
562.8,51.3655,0.773014,-3.12172
565.4,51.6243,0.759272,-3.12439
568,51.8828,0.736269,-3.13596
570.6,52.142,0.711922,-3.14058
573.2,52.402,0.700413,-3.14638
575.8,52.6614,0.694747,-3.14213
578.4,52.9207,0.672251,-3.1534
581,53.1803,0.638277,-3.15474
583.6,53.4399,0.601547,-3.16036
586.2,53.6978,0.479387,-3.16257
588.8,53.9582,0.292075,-3.16613
591.4,54.217,0.174883,-3.17054
594,54.4772,0.0929765,-3.1775
596.6,54.7379,0.0293753,-3.17868
599.2,54.9974,-0.0188061,-3.1788
601.8,55.2584,-0.067176,-3.18612
604.4,55.5182,-0.108194,-3.18896
607,55.7792,-0.113388,-3.19009
609.6,56.0389,-0.153968,-3.18945
612.2,56.3002,-0.206383,-3.19471
614.8,56.5608,-0.260197,-3.19835
617.4,56.8226,-0.3213,-3.19876
620,57.084,-0.356514,-3.20554
622.6,57.3455,-0.384609,-3.20226
625.2,57.6086,-0.380246,-3.20163
627.8,57.8715,-0.370083,-3.20454
630.4,58.1342,-0.350764,-3.20891
633,58.3956,-0.33995,-3.21016
635.6,58.6572,-0.332336,-3.21203
638.2,58.9198,-0.309615,-3.2092
640.8,59.1807,-0.305165,-3.21587
643.4,59.4422,-0.283603,-3.21692
646,59.7064,-0.270448,-3.21792
648.6,59.9681,-0.252006,-3.21744
651.2,60.231,-0.232301,-3.21859
653.8,60.4937,-0.229512,-3.22302
656.4,60.7559,-0.221747,-3.22348
659,61.0183,-0.207551,-3.22279
661.6,61.2811,-0.205177,-3.22461
664.2,61.5444,-0.202383,-3.22895
666.8,61.8065,-0.198839,-3.22631
669.4,62.0691,-0.194165,-3.22908
672,62.3306,-0.188559,-3.23004
674.6,62.5954,-0.19056,-3.23479
677.2,62.8586,-0.196353,-3.23169
679.8,63.1219,-0.197167,-3.23102
682.4,63.3848,-0.194429,-3.2339
685,63.6469,-0.193157,-3.23243
687.6,63.9118,-0.190567,-3.23726
690.2,64.1753,-0.209456,-3.23853
692.8,64.4377,-0.228409,-3.23854
695.4,64.7012,-0.240327,-3.23733
698,64.9653,-0.261628,-3.23493
700.6,65.2286,-0.269962,-3.24277
703.2,65.4925,-0.289098,-3.23969
705.8,65.7556,-0.304394,-3.24055
708.4,66.0203,-0.335658,-3.24351
711,66.2831,-0.336227,-3.24027
713.6,66.5463,-0.349926,-3.24404
716.2,66.8108,-0.374493,-3.24599
718.8,67.0751,-0.378268,-3.24838
721.4,67.3396,-0.391529,-3.2441
724,67.6038,-0.402976,-3.24859
726.6,67.8668,-0.427,-3.2516
729.2,68.1325,-0.438824,-3.24969
731.8,68.3935,-0.444277,-3.25048
734.4,68.6602,-0.450143,-3.24743
737,68.9254,-0.455444,-3.2537
739.6,69.1892,-0.459276,-3.25425
742.2,69.4535,-0.467062,-3.25279
744.8,69.7182,-0.464837,-3.25304
747.4,69.9843,-0.458393,-3.25759
750,70.2476,-0.467639,-3.2532
752.6,70.5136,-0.470759,-3.25561
755.2,70.7797,-0.479645,-3.25408
757.8,71.0443,-0.463157,-3.25574
760.4,71.3064,-0.456512,-3.2553
763,71.5753,-0.450725,-3.25869
765.6,71.8392,-0.431044,-3.25345
768.2,72.1037,-0.427789,-3.25889
770.8,72.3683,-0.432685,-3.26132
773.4,72.6328,-0.425177,-3.26179
776,72.8963,-0.436047,-3.25768
778.6,73.1618,-0.427934,-3.26463
781.2,73.4265,-0.416067,-3.26034
783.8,73.6913,-0.409742,-3.26207
786.4,73.957,-0.415721,-3.25712
789,74.2214,-0.415445,-3.26315
790,74.323,-0.416488,-3.2645