File: 01_Data/NFPA_1981-2019_SCBA_Lens/STA/N2/10K_min/NFPA_1981-2019_SCBA_Lens_STA_N2_10KData_230605_R2.csv
Temp./C,Time/min,DSC/(mW/mg),Mass loss/mg
40.0,0.0,0.731985,0.0147579
42.4,0.27828,0.770409,0.0144917
44.8,0.550665,0.811078,0.0131832
47.2,0.818944,0.826214,0.0132723
49.6,1.07987,0.841812,0.014511
52,1.33944,0.855772,0.013992
54.4,1.59544,0.877475,0.0158074
56.8,1.84914,0.892122,0.0144798
59.2,2.10111,0.918254,0.0158113
61.6,2.3479,0.935587,0.0170636
64,2.59522,0.950393,0.0158155
66.4,2.83929,0.961729,0.0174259
68.8,3.08227,0.978978,0.0158196
71.2,3.32496,0.997472,0.0144897
73.6,3.56472,1.0032,0.0158039
76,3.80551,1.02037,0.015806
78.4,4.04342,1.02768,0.0157243
80.8,4.28311,1.04389,0.01582
83.2,4.52138,1.05382,0.017129
85.6,4.75853,1.05859,0.0184518
88,4.99535,1.06832,0.0184491
90.4,5.2308,1.07999,0.01845
92.8,5.46694,1.08819,0.01844
95.2,5.70147,1.09927,0.0192055
97.6,5.93457,1.11389,0.0184452
100,6.16856,1.11468,0.0171299
102.4,6.4022,1.12241,0.0197024
104.8,6.63628,1.13986,0.0184502
107.2,6.86892,1.14449,0.01845
109.6,7.10202,1.16064,0.01844
112,7.33534,1.1711,0.0197569
114.4,7.5681,1.18104,0.0186901
116.8,7.80114,1.19287,0.0174992
119.2,8.03468,1.20235,0.0177831
121.6,8.26448,1.20737,0.01779
124,8.49976,1.22733,0.0180113
126.4,8.73236,1.22263,0.0181199
128.8,8.962,1.22816,0.0187701
131.2,9.19449,1.23374,0.0187786
133.6,9.42599,1.24551,0.0201018
136,9.65698,1.25417,0.0210699
138.4,9.8879,1.26475,0.0214107
140.8,10.1175,1.25591,0.0187704
143.2,10.3484,1.26847,0.0161367
145.6,10.5786,1.26921,0.01746
148,10.8084,1.27285,0.01619
150.4,11.0376,1.28387,0.0174493
152.8,11.2669,1.28645,0.0197637
155.2,11.4968,1.29899,0.0210841
157.6,11.7265,1.31169,0.0190766
160,11.9565,1.31444,0.02042
162.4,12.185,1.32135,0.0217391
164.8,12.4139,1.32395,0.0215016
167.2,12.6433,1.3296,0.0191088
169.6,12.8726,1.33492,0.0199481
172,13.1021,1.3419,0.0178893
174.4,13.3314,1.34883,0.0217824
176.8,13.5601,1.35857,0.02042
179.2,13.7874,1.3604,0.02075
181.6,14.0166,1.35669,0.0204178
184,14.2446,1.36537,0.0194411
186.4,14.4726,1.37315,0.02076
188.8,14.7011,1.38408,0.0207121
191.2,14.9292,1.40075,0.020092
193.6,15.1582,1.4169,0.02075
196,15.386,1.44351,0.0200894
198.4,15.6134,1.46996,0.02141
200.8,15.8445,1.52557,0.02043
203.2,16.0725,1.56464,0.02076
205.6,16.3031,1.60127,0.0207602
208,16.5303,1.60223,0.0207497
210.4,16.7579,1.58717,0.0199982
212.8,16.9865,1.58066,0.0214099
215.2,17.2141,1.57794,0.0191099
217.6,17.4429,1.57498,0.0191098
220,17.6719,1.57792,0.02043
222.4,17.9,1.58393,0.01911
224.8,18.1276,1.59948,0.0204902
227.2,18.3564,1.59672,0.0230608
229.6,18.5854,1.59558,0.0210802
232,18.8139,1.58843,0.0210808
234.4,19.0423,1.5984,0.0216503
236.8,19.271,1.60416,0.0224056
239.2,19.4982,1.6095,0.0211054
241.6,19.7267,1.6101,0.02207
244,19.955,1.61037,0.02174
246.4,20.1843,1.61364,0.0233768
248.8,20.4123,1.61387,0.0215408
251.2,20.6411,1.61587,0.0211487
253.6,20.8703,1.61768,0.0223965
256,21.0965,1.61896,0.0224
258.4,21.3275,1.61282,0.0224
260.8,21.5574,1.61201,0.023388
263.2,21.7849,1.61526,0.02339
265.6,22.0155,1.61187,0.0223998
268,22.2441,1.6114,0.0209953
270.4,22.4733,1.61716,0.0220674
272.8,22.7025,1.62516,0.0207407
275.2,22.9312,1.62802,0.023041
277.6,23.1614,1.61948,0.0227305
280,23.3918,1.61879,0.0230406
282.4,23.6216,1.62848,0.0228313
284.8,23.8513,1.63667,0.0216422
287.2,24.0814,1.63796,0.02306
289.6,24.3123,1.64176,0.0211287
292,24.5413,1.63626,0.0227299
294.4,24.7726,1.63562,0.0219727
296.8,25.003,1.63962,0.0232506
299.2,25.2326,1.6436,0.0213688
301.6,25.4626,1.63859,0.0214431
304,25.6928,1.64365,0.02109
306.4,25.9228,1.6475,0.0210627
308.8,26.153,1.64125,0.0220697
311.2,26.3833,1.64631,0.02076
313.6,26.6129,1.64345,0.0207605
316,26.8462,1.65713,0.0201
318.4,27.0762,1.64746,0.0207537
320.8,27.3092,1.65186,0.01746
323.2,27.5392,1.64372,0.01878
325.6,27.7726,1.65278,0.0187798
328,28.0038,1.64951,0.01977
330.4,28.2369,1.65093,0.0197702
332.8,28.4667,1.65019,0.01845
335.2,28.6986,1.63678,0.0171298
337.6,28.9312,1.64158,0.0187052
340,29.1641,1.6397,0.0194433
342.4,29.3967,1.64372,0.0181201
344.8,29.6295,1.63285,0.01713
347.2,29.8621,1.63662,0.0171473
349.6,30.0951,1.64164,0.01746
352,30.3273,1.64939,0.01482
354.4,30.5607,1.64977,0.0159987
356.8,30.7934,1.64139,0.014072
359.2,31.027,1.65122,0.0158201
361.6,31.2603,1.64104,0.01318
364,31.4938,1.64682,0.01318
366.4,31.7269,1.64285,0.0125014
368.8,31.9601,1.65082,0.0135
371.2,32.1924,1.64446,0.013839
373.6,32.4251,1.63131,0.01614
376,32.6589,1.64648,0.01449
378.4,32.8912,1.6412,0.0121887
380.8,33.1249,1.64644,0.0108669
383.2,33.359,1.65424,0.01087
385.6,33.5937,1.65675,0.00922891
388,33.8275,1.67071,0.00776989
390.4,34.0619,1.67304,0.00828792
392.8,34.2968,1.67562,0.00690748
395.2,34.5309,1.67065,0.00493308
397.6,34.7668,1.67553,0.00494048
400,35.0003,1.68409,0.00369461
402.4,35.2376,1.69105,0.00160687
404.8,35.4718,1.69442,-0.000990026
407.2,35.7067,1.69728,-0.00231356
409.6,35.9427,1.70143,-0.00428162
412,36.1776,1.7051,-0.00691923
414.4,36.4134,1.7008,-0.00625601
416.8,36.649,1.69141,-0.0101314
419.2,36.8864,1.69676,-0.0145036
421.6,37.1225,1.69725,-0.0181101
424,37.3579,1.69445,-0.0208683
426.4,37.5935,1.68057,-0.0251853
428.8,37.8297,1.68387,-0.0313945
431.2,38.0662,1.67229,-0.0377697
433.6,38.3021,1.66878,-0.0464084
436,38.5388,1.67158,-0.0536363
438.4,38.7749,1.67916,-0.0634049
440.8,39.0113,1.68259,-0.0752113
443.2,39.2476,1.68772,-0.0866834
445.6,39.4853,1.68899,-0.099672
448,39.722,1.70149,-0.116066
450.4,39.959,1.71312,-0.134141
452.8,40.1972,1.72975,-0.154017
455.2,40.4336,1.76404,-0.175913
457.6,40.6711,1.78563,-0.203812
460,40.9094,1.81297,-0.232738
462.4,41.1468,1.85333,-0.268676
464.8,41.3843,1.90518,-0.308574
467.2,41.6226,1.94015,-0.356767
469.6,41.8599,1.96219,-0.410492
472,42.1003,2.07485,-0.4745
474.4,42.3394,2.14681,-0.546645
476.8,42.5799,2.22274,-0.631321
479.2,42.819,2.29178,-0.722639
481.6,43.0597,2.31128,-0.823912
484,43.2994,2.36966,-0.932358
486.4,43.54,2.48568,-1.05364
488.8,43.7786,2.49247,-1.18613
491.2,44.0196,2.59921,-1.33557
493.6,44.2581,2.65965,-1.49148
496,44.4961,2.66585,-1.65575
498.4,44.7369,2.61409,-1.83429
500.8,44.9754,2.64878,-2.01718
503.2,45.2137,2.5247,-2.20309
505.6,45.4509,2.35141,-2.38639
508,45.6864,2.08033,-2.55725
510.4,45.9208,1.71265,-2.71014
512.8,46.1531,1.28596,-2.83317
515.2,46.3858,0.910629,-2.92571
517.6,46.6207,0.637873,-2.99146
520,46.8565,0.497278,-3.03797
522.4,47.0936,0.423639,-3.06795
524.8,47.332,0.404991,-3.08714
527.2,47.5691,0.392595,-3.10248
529.6,47.8118,0.398728,-3.1149
532,48.0508,0.387509,-3.12651
534.4,48.2913,0.383172,-3.13116
536.8,48.5317,0.385106,-3.13677
539.2,48.7728,0.383154,-3.14164
541.6,49.0129,0.375539,-3.14634
544,49.2526,0.374151,-3.15157
546.4,49.4934,0.366162,-3.15682
548.8,49.733,0.360478,-3.16186
551.2,49.975,0.362588,-3.16452
553.6,50.2151,0.357281,-3.16845
556,50.4566,0.35236,-3.17277
558.4,50.6966,0.345852,-3.17899
560.8,50.938,0.346191,-3.18165
563.2,51.1795,0.349114,-3.18494
565.6,51.4214,0.345386,-3.18688
568,51.6627,0.347161,-3.19053
570.4,51.9032,0.343116,-3.19348
572.8,52.145,0.33986,-3.19613
575.2,52.3863,0.349378,-3.20008
577.6,52.628,0.354807,-3.20238
580,52.8698,0.350692,-3.20372
582.4,53.1116,0.373001,-3.2083
584.8,53.3538,0.375,-3.21226
587.2,53.596,0.391331,-3.21258
589.6,53.8371,0.408345,-3.21563
592,54.08,0.407504,-3.21796
594.4,54.3216,0.42341,-3.22093
596.8,54.5631,0.439323,-3.22356
599.2,54.8057,0.460723,-3.22456
601.6,55.048,0.501821,-3.22719
604,55.2897,0.529788,-3.22851
606.4,55.5328,0.540798,-3.23113
608.8,55.7761,0.53748,-3.23378
611.2,56.0182,0.513224,-3.23575
613.6,56.2614,0.499061,-3.23575
616,56.5032,0.497063,-3.2374
618.4,56.7453,0.49783,-3.23973
620.8,56.9866,0.491807,-3.23871
623.2,57.2286,0.488867,-3.24267
625.6,57.4697,0.472404,-3.24607
628,57.711,0.461692,-3.24598
630.4,57.9499,0.458259,-3.24728
632.8,58.1943,0.454957,-3.24563
635.2,58.436,0.447022,-3.24695
637.6,58.6772,0.450471,-3.25035
640,58.9207,0.44527,-3.24956
642.4,59.1608,0.432211,-3.25057
644.8,59.4027,0.424009,-3.25222
647.2,59.6457,0.421294,-3.2559
649.6,59.8877,0.406622,-3.25575
652,60.1307,0.405187,-3.25584
654.4,60.3738,0.410568,-3.25454
656.8,60.6161,0.400097,-3.25749
659.2,60.8587,0.40246,-3.25716
661.6,61.0999,0.409946,-3.25848
664,61.3422,0.389502,-3.25778
666.4,61.5846,0.379669,-3.25914
668.8,61.827,0.363206,-3.26045
671.2,62.0705,0.368178,-3.2631
673.6,62.3138,0.362901,-3.2621
676,62.5576,0.355726,-3.26341
678.4,62.8004,0.351611,-3.26375
680.8,63.0444,0.346023,-3.26441
683.2,63.2876,0.335667,-3.26707
685.6,63.531,0.323921,-3.26621
688,63.7753,0.324968,-3.26633
690.4,64.0176,0.307885,-3.26902
692.8,64.262,0.299575,-3.26923
695.2,64.5051,0.305526,-3.27099
697.6,64.7501,0.299097,-3.2698
700,64.995,0.279283,-3.27089
702.4,65.239,0.277904,-3.27133
704.8,65.4828,0.257817,-3.27264
707.2,65.7275,0.26288,-3.27397
709.6,65.9716,0.251301,-3.27277
712,66.2159,0.251141,-3.27495
714.4,66.4607,0.225226,-3.27527
716.8,66.7057,0.221528,-3.27428
719.2,66.9499,0.213605,-3.27527
721.6,67.1954,0.198604,-3.27627
724,67.4414,0.189882,-3.27626
726.4,67.6863,0.177774,-3.27758
728.8,67.9318,0.165153,-3.27862
731.2,68.1769,0.154744,-3.27626
733.6,68.4227,0.153823,-3.27693
736,68.6676,0.132469,-3.27889
738.4,68.9134,0.13341,-3.28019
740,69.0768,0.136129,-3.28153