File: 01_Data/NFPA_1981-2019_SCBA_Lens/STA/N2/10K_min/NFPA_1981-2019_SCBA_Lens_STA_N2_10KData_250910_R3.csv
Temp./C,Time/min,DSC/(mW/mg),Mass loss/mg
40,0,0.57368,-9.98E-03
42.6,0.347181,0.61413,-1.80E-02
45.2,0.675748,0.65733,-2.18E-02
47.8,0.995243,0.68676,-1.99E-02
50.4,1.3048,0.71777,-1.76E-02
53,1.60458,0.7431,-1.63E-02
55.6,1.89693,0.76128,-1.52E-02
58.2,2.18462,0.79686,-1.47E-02
60.8,2.46717,0.81358,-1.42E-02
63.4,2.74325,0.84492,-1.49E-02
66,3.01746,0.86154,-1.47E-02
68.6,3.28838,0.8905,-1.39E-02
71.2,3.55546,0.90877,-1.52E-02
73.8,3.81987,0.92518,-1.36E-02
76.4,4.08295,0.9492,-1.43E-02
79,4.34633,0.95648,-1.43E-02
81.6,4.60876,0.96779,-1.46E-02
84.2,4.86745,0.98246,-1.38E-02
86.8,5.12473,0.9867,-1.45E-02
89.4,5.38079,0.97896,-1.42E-02
92,5.63615,0.99887,-1.40E-02
94.6,5.88943,1.01035,-1.49E-02
97.2,6.14191,1.02017,-1.41E-02
99.8,6.3939,1.03105,-1.40E-02
102.4,6.64466,1.04508,-1.42E-02
105,6.89486,1.05331,-1.46E-02
107.6,7.14387,1.07206,-1.49E-02
110.2,7.39444,1.08423,-1.53E-02
112.8,7.64439,1.09646,-1.57E-02
115.4,7.89324,1.11512,-1.49E-02
118,8.14311,1.11868,-1.55E-02
120.6,8.39244,1.14047,-1.48E-02
123.2,8.64081,1.14631,-1.43E-02
125.8,8.89051,1.15176,-1.64E-02
128.4,9.13834,1.16166,-1.46E-02
131,9.38747,1.17404,-1.42E-02
133.6,9.63344,1.17884,-1.39E-02
136.2,9.88148,1.18571,-1.49E-02
138.8,10.1259,1.19506,-1.46E-02
141.4,10.3729,1.20345,-1.44E-02
144,10.6195,1.21437,-1.43E-02
146.6,10.8663,1.21935,-1.42E-02
149.2,11.1132,1.23602,-1.40E-02
151.8,11.3587,1.2459,-1.40E-02
154.4,11.6041,1.25713,-1.39E-02
157,11.8502,1.26827,-1.68E-02
159.6,12.096,1.28217,-1.40E-02
162.2,12.3396,1.2856,-1.46E-02
164.8,12.5854,1.28576,-1.46E-02
167.4,12.8304,1.29922,-1.48E-02
170,13.0757,1.30127,-1.37E-02
172.6,13.3211,1.31069,-1.49E-02
175.2,13.5662,1.31917,-1.47E-02
177.8,13.81,1.32653,-1.39E-02
180.4,14.0555,1.33402,-1.40E-02
183,14.3008,1.3351,-1.43E-02
185.6,14.5449,1.34556,-1.45E-02
188.2,14.7889,1.35873,-1.47E-02
190.8,15.0334,1.36653,-1.50E-02
193.4,15.277,1.37356,-1.63E-02
196,15.5218,1.3871,-1.50E-02
198.6,15.7662,1.40786,-1.54E-02
201.2,16.0107,1.46356,-1.58E-02
203.8,16.2568,1.53008,-1.48E-02
206.4,16.49971,1.58078,-1.52E-02
209,16.7467,1.58409,-1.56E-02
211.6,16.9904,1.57276,-1.47E-02
214.2,17.2354,1.56181,-1.52E-02
216.8,17.4794,1.57541,-1.43E-02
219.4,17.7245,1.57583,-1.48E-02
222,17.9687,1.58161,-1.53E-02
224.6,18.2137,1.58478,-1.45E-02
227.2,18.457,1.5914,-1.50E-02
229.8,18.7029,1.59798,-1.48E-02
232.4,18.9481,1.6129,-1.50E-02
235,19.1916,1.62428,-1.48E-02
237.6,19.4361,1.6242,-1.41E-02
240.2,19.6818,1.62648,-1.47E-02
242.8,19.9271,1.62766,-1.54E-02
245.4,20.173,1.63007,-1.47E-02
248,20.4172,1.64923,-1.50E-02
250.6,20.6637,1.65427,-1.60E-02
253.2,20.9095,1.65037,-1.40E-02
255.8,21.156,1.65999,-1.48E-02
258.4,21.3986,1.67005,-1.55E-02
261,21.6459,1.67072,-1.49E-02
263.6,21.8931,1.6719,-1.57E-02
266.2,22.1383,1.68598,-1.48E-02
268.8,22.3849,1.68342,-1.43E-02
271.4,22.631,1.68698,-1.38E-02
274,22.8777,1.68729,-1.35E-02
276.6,23.1255,1.69121,-1.38E-02
279.2,23.3708,1.69946,-1.34E-02
281.8,23.6187,1.70222,-1.36E-02
284.4,23.8655,1.71325,-1.32E-02
287,24.1142,1.71646,-1.41E-02
289.6,24.3627,1.7185,-1.24E-02
292.2,24.6114,1.71413,-1.28E-02
294.8,24.8611,1.72567,-1.19E-02
297.4,25.1095,1.73009,-1.29E-02
300,25.3581,1.74096,-1.30E-02
302.6,25.6073,1.75041,-1.37E-02
305.2,25.8564,1.76468,-1.29E-02
307.8,26.1051,1.7586,-1.26E-02
310.4,26.3531,1.76309,-1.38E-02
313,26.6007,1.77092,-1.37E-02
315.6,26.8491,1.77875,-1.38E-02
318.2,27.098,1.7808,-1.36E-02
320.8,27.3449,1.78479,-1.35E-02
323.4,27.5938,1.76758,-1.38E-02
326,27.8428,1.7852,-1.33E-02
328.6,28.0913,1.78331,-1.46E-02
331.2,28.3413,1.7897,-1.44E-02
333.8,28.588,1.78448,-1.34E-02
336.4,28.8399,1.78676,-1.34E-02
339,29.0898,1.79306,-1.39E-02
341.6,29.3408,1.79711,-1.27E-02
344.2,29.5885,1.78367,-1.44E-02
346.8,29.8394,1.80273,-1.49E-02
349.4,30.0889,1.79844,-1.36E-02
352,30.3403,1.79988,-1.51E-02
354.6,30.5899,1.7957,-1.52E-02
357.2,30.8407,1.78729,-1.55E-02
359.8,31.091,1.77741,-1.68E-02
362.4,31.342,1.79029,-1.65E-02
365,31.5926,1.78913,-1.69E-02
367.6,31.8419,1.7912,-1.73E-02
370.2,32.094,1.78151,-1.90E-02
372.8,32.3448,1.78041,-1.81E-02
375.4,32.5962,1.78174,-1.86E-02
378,32.8474,1.76613,-2.00E-02
380.6,33.0994,1.76059,-1.93E-02
383.2,33.3507,1.75579,-1.99E-02
385.8,33.6023,1.76346,-2.07E-02
388.4,33.8534,1.75714,-2.24E-02
391,34.1049,1.74555,-2.28E-02
393.6,34.3569,1.74745,-2.37E-02
396.2,34.6108,1.74787,-2.41E-02
398.8,34.8635,1.7495,-2.49E-02
401.4,35.1164,1.76175,-2.60E-02
404,35.3686,1.74825,-2.72E-02
406.6,35.623,1.74227,-2.84E-02
409.2,35.8758,1.75229,-2.81E-02
411.8,36.1279,1.75282,-2.95E-02
414.4,36.3813,1.75678,-3.21E-02
417,36.6344,1.7718,-3.40E-02
419.6,36.8901,1.76298,-3.47E-02
422.2,37.1425,1.75942,-3.81E-02
424.8,37.3958,1.76792,-3.96E-02
427.4,37.6492,1.77767,-4.35E-02
430,37.9033,1.79541,-4.58E-02
432.6,38.1565,1.80737,-4.96E-02
435.2,38.4103,1.82627,-5.50E-02
437.8,38.6644,1.83427,-6.09E-02
440.4,38.9173,1.83276,-6.72E-02
443,39.171,1.83588,-7.49E-02
445.6,39.425,1.84207,-8.36E-02
448.2,39.6793,1.85069,-9.37E-02
450.8,39.9338,1.89084,-0.10408
453.4,40.1886,1.92933,-0.11875
456,40.4432,1.96084,-0.13369
458.6,40.6976,2.00927,-0.15409
461.2,40.9534,2.02388,-0.17541
463.8,41.2091,2.08973,-0.20172
466.4,41.463,2.16259,-0.23459
469,41.721,2.23143,-0.27287
471.6,41.9768,2.36795,-0.31844
474.2,42.2325,2.39008,-0.37185
476.8,42.4901,2.50296,-0.43386
479.4,42.7446,2.54406,-0.50682
482,43.0048,2.73795,-0.59081
484.6,43.2596,2.7131,-0.68734
487.2,43.5184,2.89924,-0.7953
489.8,43.7749,2.95736,-0.91304
492.4,44.0303,2.98662,-1.03166
495,44.2857,3.16694,-1.16793
497.6,44.5397,3.2256,-1.31993
500.2,44.7942,3.20699,-1.48061
502.8,45.0477,3.10774,-1.6477
505.4,45.2992,2.71704,-1.81785
508,45.548,2.12309,-1.98871
510.6,45.7968,1.56323,-2.15282
513.2,46.047,1.13429,-2.30428
515.8,46.2981,0.82325,-2.45531
518.4,46.5517,0.67897,-2.59791
521,46.8039,0.59437,-2.7219
523.6,47.0605,0.57906,-2.8278
526.2,47.3162,0.57809,-2.91666
528.8,47.5729,0.58615,-2.98882
531.4,47.83,0.59177,-3.04191
534,48.087,0.60558,-3.0842
536.6,48.3437,0.60357,-3.11943
539.2,48.6015,0.60256,-3.14766
541.8,48.859,0.58912,-3.16616
544.4,49.1166,0.58662,-3.17545
547,49.3754,0.58411,-3.18921
549.6,49.6332,0.58233,-3.19825
552.2,49.8916,0.56733,-3.20843
554.8,50.1511,0.56032,-3.22873
557.4,50.4102,0.54706,-3.24534
560,50.6697,0.52976,-3.25146
562.6,50.9285,0.53288,-3.26032
565.2,51.1799,-0.27788,-3.26327
567.8,51.4348,-0.73834,-3.26941
570.4,51.695,-0.7694,-3.27947
573,51.9525,-0.77622,-3.29093
575.6,52.2118,-0.795,-3.29815
578.2,52.4729,-0.81554,-3.29831
580.8,52.7321,-0.82602,-3.29026
583.4,52.9931,-0.83056,-3.28766
586,53.2535,-0.82153,-3.28665
588.6,53.5121,-0.83343,-3.28618
591.2,53.7724,-0.85437,-3.29022
593.8,54.0328,-0.85961,-3.29604
596.4,54.2926,-0.86234,-3.29166
599,54.5533,-0.85406,-3.28577
601.6,54.8124,-0.86662,-3.28495
604.2,55.0747,-0.88016,-3.28436
606.8,55.334,-0.88595,-3.28722
609.4,55.5969,-0.89114,-3.29089
612,55.8571,-0.89568,-3.29496
614.6,56.1182,-0.90649,-3.29771
617.2,56.3791,-0.92804,-3.30161
619.8,56.6405,-0.94685,-3.30541
622.4,56.901,-0.96572,-3.31113
625,57.1619,-0.98967,-3.32391
627.6,57.4234,-1.01756,-3.3368
630.2,57.6859,-1.03898,-3.34889
632.8,57.9458,-1.05716,-3.36915
635.4,58.2108,-1.10661,-3.38342
638,58.4716,-1.12997,-3.39369
640.6,58.7328,-1.15946,-3.39689
643.2,58.9932,-1.18062,-3.40601
645.8,59.2559,-1.17935,-3.41188
648.4,59.5149,-1.20888,-3.41036
651,59.7789,-1.2312,-3.40484
653.6,60.0406,-1.25973,-3.40321
656.2,60.3033,-1.29561,-3.39236
658.8,60.5645,-1.31467,-3.37324
661.4,60.8247,-1.34291,-3.35916
664,61.0851,-1.36918,-3.35914
666.6,61.3484,-1.38347,-3.36431
669.2,61.6097,-1.42644,-3.36077
671.8,61.8716,-1.47885,-3.36432
674.4,62.1321,-1.51103,-3.36387
677,62.3921,-1.54041,-3.36292
679.6,62.6523,-1.56219,-3.36793
682.2,62.9155,-1.35015,-3.37226
684.8,63.173,-1.37381,-3.38408
687.4,63.4355,-1.41238,-3.39131
690,63.6957,-1.43088,-3.39158
692.6,63.9557,-1.45152,-3.38609
695.2,64.216,-1.47155,-3.39543
697.8,64.4782,-1.52214,-3.39872
700.4,64.7405,-1.54555,-3.40235
703,64.9998,-1.54588,-3.40469
705.6,65.2614,-1.5898,-3.40781
708.2,65.5228,-1.61375,-3.41088
710.8,65.7832,-1.6427,-3.41251
713.4,66.0436,-1.67465,-3.41522
716,66.3054,-1.69366,-3.4195
718.6,66.5649,-1.7217,-3.41786
721.2,66.824,-1.74471,-3.41061
723.8,67.0859,-1.76566,-3.40907
726.4,67.3462,-1.79115,-3.40554
729,67.6076,-1.82895,-3.40026
731.6,67.8687,-1.84748,-3.3937
734.2,68.1299,-1.87271,-3.38871
736.8,68.3917,-1.88437,-3.38326
739.4,68.6539,-1.91185,-3.38026
742,68.9156,-1.9353,-3.37892
744.6,69.1779,-1.94664,-3.37708
747.2,69.4391,-1.97595,-3.37496
749.8,69.7003,-1.97976,-3.3751
752.4,69.9614,-2.01702,-3.37506
755,70.2236,-2.05564,-3.37547
757.6,70.4854,-2.06594,-3.37569
760.2,70.7465,-2.07684,-3.3768
762.8,71.0087,-2.09548,-3.3782
765.4,71.2713,-2.09831,-3.37828
768,71.5341,-2.10246,-3.379
770.6,71.7943,-2.12501,-3.3796
773.2,72.0588,-2.13516,-3.37945
775.8,72.3216,-2.14128,-3.3805
778.4,72.5846,-2.14408,-3.38011
781,72.8488,-2.16593,-3.38093
783.6,73.111,-2.19495,-3.38073
786.2,73.3732,-2.22466,-3.38276
788.8,73.6366,-2.2387,-3.38216
,,,-3.38156
,,,-3.38231
,,,-3.38299
,,,-3.38222