File: 01_Data/NFPA_1981-2019_SCBA_Lens/STA/N2/10K_min/NFPA_1981-2019_SCBA_Lens_STA_N2_10KData_250908_R1.csv
Temp./C,Time/min,DSC/(mW/mg),Mass loss/mg
40,0,0.56121,-0.0161991
42.6,0.350444,0.62809,-0.0166473
45.2,0.682409,0.66212,-0.0160637
47.8,1.00071,0.69462,-0.0165719
50.4,1.30939,0.72442,-0.0174158
53,1.60895,0.75388,-0.0161564
55.6,1.90351,0.77541,-0.01674769
58.2,2.19164,0.80531,-0.0178246
60.8,2.47094,0.83189,-0.01688734
63.4,2.74945,0.85381,-0.0186574
66,3.02223,0.87681,-0.0191142
68.6,3.29333,0.90627,-0.0189812
71.2,3.56061,0.93283,-0.0190981
73.8,3.82728,0.94847,-0.01920086
76.4,4.09196,0.97346,-0.0177419
79,4.35514,0.98567,-0.0190992
81.6,4.6155,1.00024,-0.0193802
84.2,4.87646,1.01593,-0.0190074
86.8,5.13559,1.01186,-0.0202672
89.4,5.39263,1.01851,-0.020234
92,5.64727,1.02446,-0.0201974
94.6,5.9016,1.03442,-0.0203319
97.2,6.15558,1.0594,-0.0213849
99.8,6.40706,1.06559,-0.0189895
102.4,6.65818,1.07375,-2.13E-02
105,6.90897,1.09282,-2.04E-02
107.6,7.15934,1.10889,-2.10E-02
110.2,7.40932,1.11882,-2.16E-02
112.8,7.65809,1.14075,-2.10E-02
115.4,7.90713,1.15785,-2.18E-02
118,8.15784,1.16853,-2.14E-02
120.6,8.40639,1.18266,-2.18E-02
123.2,8.65556,1.188,-2.19E-02
125.8,8.90424,1.20799,-2.30E-02
128.4,9.15183,1.21263,-2.21E-02
131,9.39991,1.2185,-2.21E-02
133.6,9.64847,1.23472,-2.18E-02
136.2,9.8929,1.23954,-2.16E-02
138.8,10.1409,1.25528,-2.15E-02
141.4,10.3848,1.27157,-2.11E-02
144,10.6328,1.2792,-2.22E-02
146.6,10.878,1.28902,-2.22E-02
149.2,11.1239,1.29143,-2.10E-02
151.8,11.3685,1.30908,-2.25E-02
154.4,11.6154,1.32309,-2.13E-02
157,11.8613,1.32731,-2.15E-02
159.6,12.1056,1.34009,-2.29E-02
162.2,12.3506,1.34462,-2.17E-02
164.8,12.5966,1.35618,-2.31E-02
167.4,12.8404,1.35828,-2.26E-02
170,13.0866,1.37217,-2.21E-02
172.6,13.3315,1.37852,-2.29E-02
175.2,13.5776,1.38331,-2.31E-02
177.8,13.8231,1.38273,-2.21E-02
180.4,14.0676,1.39802,-2.23E-02
183,14.3125,1.40235,-2.25E-02
185.6,14.5569,1.41388,-2.15E-02
188.2,14.8014,1.41998,-2.19E-02
190.8,15.0439,1.43255,-2.36E-02
193.4,15.2901,1.44759,-2.27E-02
196,15.5366,1.45795,-2.31E-02
198.6,15.7811,1.49073,-2.28E-02
201.2,16.0261,1.53732,-2.25E-02
203.8,16.2711,1.60501,-2.30E-02
206.4,16.5162,1.66629,-2.34E-02
209,16.7613,1.67612,-2.26E-02
211.6,17.0057,1.65935,-2.37E-02
214.2,17.2503,1.66454,-2.35E-02
216.8,17.4955,1.66776,-2.27E-02
219.4,17.7397,1.6661,-2.46E-02
222,17.9847,1.67513,-2.51E-02
224.6,18.2292,1.68116,-2.44E-02
227.2,18.4747,1.68515,-2.51E-02
229.8,18.7199,1.70134,-2.44E-02
232.4,18.965,1.6945,-2.37E-02
235,19.2097,1.7107,-2.43E-02
237.6,19.4546,1.7254,-2.36E-02
240.2,19.7007,1.71662,-2.42E-02
242.8,19.9466,1.72487,-2.49E-02
245.4,20.1921,1.72979,-2.52E-02
248,20.4377,1.73397,-2.49E-02
250.6,20.6834,1.74165,-2.55E-02
253.2,20.9298,1.753,-2.49E-02
255.8,21.1747,1.76014,-2.45E-02
258.4,21.4192,1.76683,-2.53E-02
261,21.6679,1.76538,-2.48E-02
263.6,21.9131,1.77712,-2.42E-02
266.2,22.1593,1.77485,-2.50E-02
268.8,22.4057,1.78533,-2.58E-02
271.4,22.6532,1.78551,-2.53E-02
274,22.899,1.79512,-2.48E-02
276.6,23.1466,1.80265,-2.50E-02
279.2,23.393,1.80696,-2.62E-02
281.8,23.6383,1.79743,-2.48E-02
284.4,23.8867,1.8013,-2.42E-02
287,24.1343,1.8095,-2.48E-02
289.6,24.3814,1.81427,-2.62E-02
292.2,24.6288,1.82762,-2.59E-02
294.8,24.8772,1.83066,-2.70E-02
297.4,25.1254,1.83411,-2.68E-02
300,25.3723,1.84246,-2.56E-02
302.6,25.6205,1.8325,-2.67E-02
305.2,25.8693,1.83567,-2.66E-02
307.8,26.1178,1.83681,-2.64E-02
310.4,26.3642,1.83965,-2.70E-02
313,26.6125,1.84631,-2.64E-02
315.6,26.8606,1.84488,-2.77E-02
318.2,27.1091,1.84902,-2.66E-02
320.8,27.3579,1.8482,-2.79E-02
323.4,27.6073,1.85491,-2.80E-02
326,27.8563,1.86684,-2.82E-02
328.6,28.105,1.86286,-2.83E-02
331.2,28.3539,1.86061,-2.89E-02
333.8,28.6025,1.85665,-3.04E-02
336.4,28.8508,1.86754,-3.06E-02
339,29.1003,1.87295,-3.02E-02
341.6,29.3487,1.8795,-2.95E-02
344.2,29.5981,1.87442,-3.11E-02
346.8,29.8484,1.86733,-3.22E-02
349.4,30.0988,1.87577,-3.25E-02
352,30.349,1.87304,-3.27E-02
354.6,30.599,1.88803,-3.33E-02
357.2,30.849,1.87572,-3.36E-02
359.8,31.1003,1.87876,-3.33E-02
362.4,31.3505,1.87995,-3.36E-02
365,31.6021,1.87335,-3.53E-02
367.6,31.8522,1.87561,-3.51E-02
370.2,32.1028,1.87449,-3.56E-02
372.8,32.3527,1.87551,-3.72E-02
375.4,32.6041,1.87174,-3.65E-02
378,32.8555,1.86861,-3.85E-02
380.6,33.1075,1.85728,-3.92E-02
383.2,33.3584,1.84603,-4.02E-02
385.8,33.6097,1.83341,-3.98E-02
388.4,33.8614,1.84094,-4.20E-02
391,34.114,1.8461,-4.37E-02
393.6,34.3654,1.83496,-4.35E-02
396.2,34.618,1.82598,-4.47E-02
398.8,34.8709,1.83306,-4.70E-02
401.4,35.1238,1.83231,-4.84E-02
404,35.373,1.8354,-4.94E-02
406.6,35.6282,1.8417,-5.12E-02
409.2,35.8791,1.8449,-5.31E-02
411.8,36.1348,1.82806,-5.45E-02
414.4,36.3873,1.83748,-5.79E-02
417,36.6403,1.83303,-6.06E-02
419.6,36.8929,1.84731,-6.31E-02
422.2,37.1479,1.84618,-6.68E-02
424.8,37.4011,1.85701,-7.11E-02
427.4,37.6543,1.86988,-7.54E-02
430,37.9103,1.87243,-8.09E-02
432.6,38.1643,1.8804,-8.73E-02
435.2,38.4184,1.88907,-9.47E-02
437.8,38.6714,1.89851,-0.10179
440.4,38.9271,1.90883,-0.11283
443,39.1814,1.90232,-0.12418
445.6,39.436,1.91529,-0.13576
448.2,39.6905,1.94403,-0.15209
450.8,39.946,1.96972,-0.17071
453.4,40.2018,2.01156,-0.19244
456,40.4548,2.02436,-0.21726
458.6,40.7107,2.07478,-0.24884
461.2,40.9658,2.1096,-0.287
463.8,41.222,2.17453,-0.33202
466.4,41.4773,2.25005,-0.38538
469,41.7343,2.33788,-0.44859
471.6,41.9888,2.37516,-0.52232
474.2,42.2477,2.48861,-0.60839
476.8,42.5046,2.53991,-0.70852
479.4,42.7627,2.66757,-0.82194
482,43.0177,2.77041,-0.95242
484.6,43.2779,2.97604,-1.09836
487.2,43.5341,3.0109,-1.26152
489.8,43.7914,3.07155,-1.44041
492.4,44.0491,3.21325,-1.6353
495,44.3051,3.211,-1.84247
497.6,44.5612,3.33216,-2.05394
500.2,44.8172,3.36227,-2.22821
502.8,45.0703,3.17514,-2.36259
505.4,45.3197,2.79436,-2.47954
508,45.5672,2.16257,-2.60117
510.6,45.8158,1.60413,-2.71634
513.2,46.0645,1.18456,-2.81431
515.8,46.316,0.91529,-2.89669
518.4,46.5684,0.74671,-2.96473
521,46.8221,0.70775,-3.02488
523.6,47.076,0.69365,-3.06504
526.2,47.3316,0.71098,-3.10606
528.8,47.5873,0.71923,-3.13815
531.4,47.8425,0.72287,-3.16219
534,48.0996,0.74149,-3.18217
536.6,48.3543,0.75774,-3.20539
539.2,48.6108,0.75212,-3.26015
541.8,48.8649,0.75384,-3.39566
544.4,49.1235,0.75801,-3.542
547,49.3942,0.59391,-3.63142
549.6,49.6698,0.49161,-3.67816
552.2,49.9361,0.4811,-3.68258
554.8,50.1979,0.475,-3.62718
557.4,50.4566,0.45197,-3.54838
560,50.7153,0.46112,-3.47833
562.6,50.9719,0.44919,-3.42185
565.2,51.2294,0.45586,-3.38395
567.8,51.4877,0.43766,-3.35944
570.4,51.7455,0.42734,-3.34242
573,52.0051,0.42359,-3.33413
575.6,52.2642,0.42577,-3.33008
578.2,52.5231,0.42199,-3.32633
580.8,52.7835,0.43214,-3.32622
583.4,53.0423,0.4458,-3.32646
586,53.3016,0.4604,-3.3272
588.6,53.5613,0.46796,-3.32766
591.2,53.8212,0.48884,-3.33092
593.8,54.0812,0.48449,-3.33293
596.4,54.3417,0.48826,-3.33432
599,54.6022,0.48635,-3.33624
601.6,54.8626,0.47538,-3.33851
604.2,55.1217,0.4911,-3.33922
606.8,55.3825,0.47882,-3.34128
609.4,55.6446,0.60439,-3.34267
612,55.9039,0.49311,-3.34373
614.6,56.1643,0.48062,-3.34571
617.2,56.4246,0.48527,-3.34901
619.8,56.6852,0.46443,-3.35094
622.4,56.9443,0.47661,-3.35189
625,57.2041,0.47029,-3.35344
627.6,57.4641,0.4588,-3.35399
630.2,57.7248,0.46534,-3.35686
632.8,57.9852,0.47056,-3.35736
635.4,58.2461,0.48616,-3.35773
638,58.5079,0.48081,-3.35819
640.6,58.7701,0.47074,-3.36094
643.2,59.03,0.4546,-3.36128
645.8,59.2903,0.45854,-3.36296
648.4,59.5491,0.45486,-3.36389
651,59.8084,0.43177,-3.3669
653.6,60.0684,0.42508,-3.36588
656.2,60.3271,0.46197,-3.3688
658.8,60.5872,0.47455,-3.37045
661.4,60.8464,0.48141,-3.37129
664,61.1066,0.48567,-3.37213
666.6,61.3665,0.47488,-3.37118
669.2,61.6274,0.46209,-3.37278
671.8,61.8867,0.44923,-3.37442
674.4,62.1461,0.42794,-3.37605
677,62.4059,0.42612,-3.37755
679.6,62.6655,0.4103,-3.37865
682.2,62.9264,0.40789,-3.37926
684.8,63.1868,0.40658,-3.38082
687.4,63.4453,0.40262,-3.38215
690,63.7074,0.39806,-3.38234
692.6,63.967,0.37189,-3.38391
695.2,64.2271,0.3789,-3.3842
697.8,64.487,0.37661,-3.38462
700.4,64.7463,0.36406,-3.38744
703,65.0057,0.3568,-3.38763
705.6,65.2655,0.33932,-3.3891
708.2,65.5256,0.3469,-3.38989
710.8,65.7849,0.33595,-3.39071
713.4,66.0453,0.32101,-3.39085
716,66.3047,0.3086,-3.39232
718.6,66.5633,0.29402,-3.39316
721.2,66.8248,0.28916,-3.39458
723.8,67.0853,0.28525,-3.39606
726.4,67.3454,0.25621,-3.39684
729,67.6053,0.26731,-3.39761
731.6,67.8657,0.27007,-3.39769
734.2,68.1277,0.27315,-3.39773
736.8,68.3886,0.27556,-3.39777
739.4,68.6492,0.26353,-3.39953
742,68.9089,0.23557,-3.40063
744.6,69.169,0.23515,-3.40061
747.2,69.4279,0.23276,-3.40315
749.8,69.6901,0.20409,-3.40164
752.4,69.9502,0.16639,-3.40288
755,70.2116,0.14725,-3.40275
757.6,70.4719,0.14933,-3.40395
760.2,70.7333,0.14302,-3.40515
762.8,70.9938,0.14875,-3.40673
765.4,71.2569,0.1423,-3.40657
768,71.5201,0.13874,-3.40643
770.6,71.7823,0.12638,-3.40627
773.2,72.0438,0.13625,-3.40741
775.8,72.3061,0.11718,-3.40852
778.4,72.5686,0.07861631,-3.4083
781,72.831,0.05524361,-3.40942
783.6,73.0932,0.02997975,-3.40945
786.2,73.3562,0.05117905,-3.40985
788.8,73.6194,0.04109716,-3.40956
790,73.741,0.0326174,-3.41001