File: 01_Data/Helmet_Strap/STA/N2/10K_min/Helmet_Strap_STA_N2_10KData_250530_R4.csv
Temp./C,Time/min,DSC/(mW/mg),Mass loss/mg
40.0,0.0,0.771527,-0.0750533
42.7,0.359278,0.879526,-0.0781603
45.4,0.69939,0.962851,-0.0804307
48.1,1.03154,1.05793,-0.0849891
50.8,1.35051,1.16046,-0.0864195
53.5,1.66092,1.26072,-0.090238
56.2,1.9658,1.35691,-0.0955269
58.9,2.26213,1.45123,-0.0981355
61.6,2.55434,1.54179,-0.104374
64.3,2.84167,1.62853,-0.110103
67,3.12277,1.68637,-0.11434
69.7,3.40428,1.72532,-0.120553
72.4,3.68154,1.7517,-0.127119
75.1,3.95584,1.75594,-0.1324
77.8,4.22871,1.73899,-0.138987
80.5,4.49889,1.69613,-0.142051
83.2,4.7691,1.64395,-0.148192
85.9,5.03606,1.5799,-0.152153
88.6,5.30187,1.50789,-0.158454
91.3,5.56536,1.42639,-0.159387
94,5.82452,1.35061,-0.163249
96.7,6.08828,1.2651,-0.165636
99.4,6.34773,1.19021,-0.167207
102.1,6.60605,1.11327,-0.16884
104.8,6.86452,1.04045,-0.169753
107.5,7.12215,0.976286,-0.17115
110.2,7.38051,0.922477,-0.17246
112.9,7.63822,0.881611,-0.171357
115.6,7.89684,0.852749,-0.172498
118.3,8.15468,0.828228,-0.176813
121,8.41225,0.813606,-0.172026
123.7,8.67146,0.811722,-0.173266
126.4,8.92746,0.799289,-0.174662
129.1,9.18561,0.801479,-0.174666
131.8,9.44223,0.809455,-0.17401
134.5,9.69707,0.815931,-0.174659
137.2,9.95347,0.81959,-0.174831
139.9,10.2092,0.826953,-0.176331
142.6,10.4644,0.822454,-0.17598
145.3,10.7189,0.840927,-0.17693
148,10.9738,0.849769,-0.177961
150.7,11.2284,0.859662,-0.176756
153.4,11.4829,0.864604,-0.17729
156.1,11.7371,0.875808,-0.178613
158.8,11.9919,0.882321,-0.179928
161.5,12.2452,0.891886,-0.17927
164.2,12.4996,0.894244,-0.17927
166.9,12.7538,0.900245,-0.180837
169.6,13.0074,0.904837,-0.18058
172.3,13.2624,0.906953,-0.182825
175,13.5164,0.912784,-0.184542
177.7,13.7705,0.914022,-0.18454
180.4,14.0235,0.927827,-0.18553
183.1,14.2786,0.933051,-0.186591
185.8,14.5329,0.932906,-0.187502
188.5,14.7865,0.927933,-0.189821
191.2,15.0406,0.927731,-0.1908
193.9,15.2936,0.942325,-0.19179
196.6,15.5478,0.936389,-0.197375
199.3,15.8009,0.9361,-0.19475
202,16.0548,0.94835,-0.196394
204.7,16.3083,0.955895,-0.197715
207.4,16.5622,0.951559,-0.200344
210.1,16.8157,0.961011,-0.202596
212.8,17.07,0.960374,-0.204319
215.5,17.3243,0.967432,-0.206946
218.2,17.5781,0.972393,-0.20619
220.9,17.8326,0.984414,-0.20891
223.6,18.087,0.991534,-0.210242
226.3,18.3396,1.00841,-0.213221
229,18.5959,1.02544,-0.214533
231.7,18.8517,1.04059,-0.216481
234.4,19.1052,1.05546,-0.22077
237.1,19.3598,1.04292,-0.220709
239.8,19.6152,1.03566,-0.22472
242.5,19.8691,1.02249,-0.228679
245.2,20.1238,1.00767,-0.23131
247.9,20.3792,0.99013,-0.234613
250.6,20.634,0.975828,-0.237927
253.3,20.8877,0.967018,-0.243616
256,21.1448,0.949656,-0.248438
258.7,21.3992,0.943138,-0.251383
261.4,21.6546,0.926313,-0.257652
264.1,21.9106,0.912457,-0.264378
266.8,22.1661,0.898323,-0.269712
269.5,22.4222,0.877081,-0.276543
272.2,22.6768,0.8547,-0.281798
274.9,22.9329,0.807112,-0.287202
277.6,23.1863,0.837077,-0.295222
280.3,23.446,0.90119,-0.302565
283,23.703,0.945652,-0.308907
285.7,23.9597,0.976915,-0.314514
288.4,24.2169,0.981831,-0.319568
291.1,24.4733,0.979432,-0.326382
293.8,24.7306,0.976173,-0.330507
296.5,24.9874,0.968479,-0.3356
299.2,25.2448,0.968911,-0.339626
301.9,25.5015,0.953738,-0.337614
304.6,25.7584,0.939108,-0.353583
307.3,26.0158,0.921291,-0.35412
310,26.2732,0.894865,-0.3547
312.7,26.5312,0.89214,-0.35733
315.4,26.7881,0.879902,-0.359911
318.1,27.0479,0.859108,-0.362596
320.8,27.3051,0.852863,-0.36623
323.5,27.5641,0.842705,-0.368485
326.2,27.8231,0.833459,-0.36952
328.9,28.0805,0.820815,-0.36975
331.6,28.3403,0.818572,-0.372406
334.3,28.5995,0.80966,-0.375382
337,28.8587,0.811393,-0.37666
339.7,29.1174,0.816244,-0.377747
342.4,29.3778,0.809868,-0.377703
345.1,29.6371,0.814954,-0.376795
347.8,29.8976,0.807306,-0.386874
350.5,30.1576,0.821181,-0.384148
353.2,30.418,0.819635,-0.386769
355.9,30.6786,0.833144,-0.387091
358.6,30.9391,0.846395,-0.388411
361.3,31.1988,0.849804,-0.38874
364,31.4594,0.859266,-0.39016
366.7,31.7205,0.862345,-0.39148
369.4,31.9815,0.879757,-0.39149
372.1,32.243,0.893502,-0.39147
374.8,32.5039,0.902573,-0.39411
377.5,32.7655,0.920273,-0.39543
380.2,33.0261,0.943698,-0.396748
382.9,33.2892,0.958553,-0.397741
385.6,33.5515,0.968577,-0.39905
388.3,33.8116,0.997814,-0.399063
391,34.0758,1.02783,-0.401107
393.7,34.3384,1.07896,-0.402318
396.4,34.601,1.13642,-0.40367
399.1,34.8646,1.21004,-0.407009
401.8,35.1282,1.29773,-0.410259
404.5,35.392,1.3987,-0.412888
407.2,35.6566,1.55535,-0.415808
409.9,35.9219,1.72697,-0.421225
412.6,36.1874,1.93946,-0.427666
415.3,36.453,2.18543,-0.432972
418,36.7185,2.43453,-0.441076
420.7,36.9862,2.63918,-0.449638
423.4,37.2508,2.75572,-0.461637
426.1,37.5134,2.778,-0.47536
428.8,37.7773,2.69116,-0.490163
431.5,38.0389,2.5189,-0.507666
434.2,38.3003,2.28477,-0.525533
436.9,38.5619,2.03979,-0.551928
439.6,38.8228,1.85979,-0.578073
442.3,39.0863,1.77981,-0.606279
445,39.3498,1.74292,-0.639839
447.7,39.6144,1.7461,-0.669358
450.4,39.8785,1.74913,-0.706656
453.1,40.1434,1.7454,-0.742587
455.8,40.4085,1.73543,-0.781976
458.5,40.6733,1.7177,-0.819453
461.2,40.9375,1.70231,-0.85827
463.9,41.203,1.66474,-0.895371
466.6,41.4686,1.63067,-0.930887
469.3,41.7315,1.5829,-0.967846
472,41.9997,1.54848,-1.00295
474.7,42.2636,1.48771,-1.03541
477.4,42.5291,1.43462,-1.06662
480.1,42.7945,1.36719,-1.09609
482.8,43.0592,1.31618,-1.12198
485.5,43.3248,1.25992,-1.1481
488.2,43.5908,1.20642,-1.17128
490.9,43.8566,1.16082,-1.19074
493.6,44.124,1.12822,-1.21337
496.3,44.3895,1.08703,-1.23449
499,44.6574,1.05309,-1.25268
501.7,44.9245,1.03073,-1.27163
504.4,45.1914,1.02074,-1.29001
507.1,45.4592,0.994797,-1.30825
509.8,45.725,0.981582,-1.32769
512.5,45.9914,0.968584,-1.34593
515.2,46.2594,0.949682,-1.36142
517.9,46.5267,0.939631,-1.38166
520.6,46.7952,0.935627,-1.39575
523.3,47.0621,0.928999,-1.41463
526,47.3291,0.915004,-1.43396
528.7,47.5972,0.906847,-1.45094
531.4,47.8644,0.890535,-1.4692
534.1,48.1335,0.877664,-1.48767
536.8,48.4012,0.869908,-1.50761
539.5,48.6695,0.856762,-1.52553
542.2,48.9368,0.852613,-1.54432
544.9,49.2045,0.826909,-1.56272
547.6,49.4731,0.805691,-1.58054
550.3,49.7412,0.773261,-1.59886
553,50.0096,0.746688,-1.6189
555.7,50.2782,0.720098,-1.63365
558.4,50.5469,0.691236,-1.65116
561.1,50.8151,0.662524,-1.66883
563.8,51.0828,0.63702,-1.68414
566.5,51.3523,0.591342,-1.69946
569.2,51.6205,0.572013,-1.71393
571.9,51.8896,0.546795,-1.72925
574.6,52.1579,0.515309,-1.74265
577.3,52.4286,0.496838,-1.75501
580,52.6978,0.478472,-1.76979
582.7,52.9675,0.458705,-1.78311
585.4,53.2372,0.458003,-1.79516
588.1,53.5064,0.442115,-1.80529
590.8,53.7763,0.438963,-1.8145
593.5,54.0461,0.440029,-1.8258
596.2,54.3155,0.43891,-1.83582
598.9,54.5864,0.444112,-1.84438
601.6,54.8559,0.4445,-1.85316
604.3,55.1267,0.453878,-1.86183
607,55.3969,0.464822,-1.86977
609.7,55.6671,0.468455,-1.87889
612.4,55.9379,0.477472,-1.88437
615.1,56.209,0.498473,-1.89351
617.8,56.4791,0.514274,-1.89956
620.5,56.7499,0.52719,-1.90581
623.2,57.0194,0.53921,-1.9142
625.9,57.2902,0.557194,-1.91956
628.6,57.5596,0.559554,-1.92619
631.3,57.8305,0.563307,-1.93148
634,58.0991,0.567308,-1.93413
636.7,58.3719,0.590106,-1.93931
639.4,58.6412,0.598433,-1.94602
642.1,58.9124,0.607783,-1.94996
644.8,59.183,0.625391,-1.95523
647.5,59.4529,0.628106,-1.95817
650.2,59.7242,0.63947,-1.96355
652.9,59.9957,0.649101,-1.96725
655.6,60.2662,0.65788,-1.97244
658.3,60.5365,0.670776,-1.97635
661,60.8079,0.674146,-1.97964
663.7,61.0794,0.683225,-1.98442
666.4,61.3501,0.673315,-1.98838
669.1,61.6214,0.697019,-1.99364
671.8,61.8919,0.69816,-1.99887
674.5,62.1623,0.69092,-1.99983
677.2,62.4331,0.6844,-2.00385
679.9,62.7035,0.67995,-2.00827
682.6,62.9751,0.666918,-2.0109
685.3,63.2456,0.670969,-2.01472
688,63.5156,0.66011,-2.02016
690.7,63.7883,0.648618,-2.02293
693.4,64.0568,0.646624,-2.02586
696.1,64.3285,0.636288,-2.02965
698.8,64.6001,0.62283,-2.0335
701.5,64.8707,0.613992,-2.03888
704.2,65.1428,0.606873,-2.04251
706.9,65.4147,0.5874,-2.04652
709.6,65.6853,0.57683,-2.05036
712.3,65.9557,0.567231,-2.05338
715,66.2276,0.542684,-2.05828
717.7,66.498,0.54207,-2.06226
720.4,66.7696,0.541029,-2.06456
723.1,67.0398,0.521112,-2.06983
725.8,67.3118,0.500906,-2.07302
728.5,67.5828,0.483689,-2.07654
731.2,67.8537,0.466635,-2.08048
733.9,68.1262,0.443111,-2.08481
736.6,68.3983,0.434323,-2.08945
739.3,68.6709,0.413282,-2.09363
742,68.9418,0.405358,-2.09849
744.7,69.2151,0.381414,-2.10024
747.4,69.4865,0.358838,-2.10694
750.1,69.7574,0.328301,-2.11083
752.8,70.03,0.302391,-2.11357
755.5,70.3009,0.28955,-2.11879
758.2,70.5741,0.263416,-2.12276
760.9,70.8463,0.263112,-2.12683
763.6,71.1179,0.235208,-2.12981
766.3,71.3914,0.217887,-2.13483
769,71.663,0.207277,-2.13746
771.7,71.936,0.188426,-2.14247
774.4,72.2082,0.165351,-2.14579
777.1,72.4803,0.147666,-2.14839
779.8,72.7537,0.115134,-2.14979
782.5,73.0252,0.0984172,-2.15501
785.2,73.2983,0.0819527,-2.15568
787.9,73.5718,0.0576032,-2.15898
790.6,73.8424,0.0396692,-2.16063
793.3,74.1176,0.0154933,-2.16458
796,74.3911,0.00670033,-2.16568
798.7,74.6639,-0.00318702,-2.16985
801.4,74.9361,-0.0200068,-2.17087
804.1,75.2077,-0.0306675,-2.17115
806.8,75.4837,-0.0508632,-2.17286
809.5,75.7577,-0.0675479,-2.17545
812.2,76.0309,-0.0703972,-2.17643
814.9,76.305,-0.06693,-2.17742
817.6,76.5784,-0.067405,-2.17929
820.3,76.8511,-0.0706685,-2.17988
823,77.1254,-0.0677992,-2.18128
825.7,77.3993,-0.0736426,-2.18292
828.4,77.6727,-0.0811603,-2.1839
831.1,77.9464,-0.0933285,-2.18522
833.8,78.2203,-0.107723,-2.1851
836.5,78.4952,-0.0976343,-2.18818
839.2,78.7687,-0.0923992,-2.18951
840,78.8483,-0.092928,-2.18951