File: 01_Data/Helmet_Strap/STA/N2/10K_min/Helmet_Strap_STA_N2_10KData_250401_R3.csv
Temp./C,Time/min,DSC/(mW/mg),Mass loss/mg
60.0,0.0,0.564733,-0.0322272
62.7,0.348482,0.615197,-0.0327454
65.4,0.678291,0.663834,-0.0342055
68.1,0.996153,0.697709,-0.0349566
70.8,1.30714,0.729363,-0.0357388
73.5,1.60987,0.769821,-0.0380955
76.2,1.90803,0.799224,-0.0357918
78.9,2.20075,0.821964,-0.0401472
81.6,2.49093,0.847181,-0.0401928
84.3,2.77316,0.868002,-0.0414691
87,3.0538,0.884641,-0.042495
89.7,3.33128,0.898274,-0.0398662
92.4,3.60344,0.895817,-0.043467
95.1,3.87432,0.888706,-0.044799
97.8,4.14302,0.883807,-0.0448137
100.5,4.40792,0.874517,-0.0446439
103.2,4.66994,0.85584,-0.045915
105.9,4.93552,0.836369,-0.046006
108.6,5.19878,0.817258,-0.0501657
111.3,5.46056,0.811489,-0.0514899
114,5.72193,0.798777,-0.0498565
116.7,5.98312,0.796361,-0.0460444
119.4,6.24494,0.799562,-0.0513035
122.1,6.50508,0.808473,-0.0499033
124.8,6.76575,0.810799,-0.0499461
127.5,7.02436,0.812387,-0.0498683
130.2,7.28379,0.832822,-0.0473111
132.9,7.54105,0.833777,-0.0486373
135.6,7.79481,0.842728,-0.05072
138.3,8.05574,0.856778,-0.0493938
141,8.3123,0.860354,-0.0520419
143.7,8.56855,0.865812,-0.0533636
146.4,8.82451,0.87979,-0.0507201
149.1,9.07938,0.889141,-0.0520293
151.8,9.33489,0.903926,-0.0520393
154.5,9.59006,0.907556,-0.05204
157.2,9.8455,0.916884,-0.0539408
159.9,10.1005,0.921512,-0.05665
162.6,10.3551,0.929603,-0.05665
165.3,10.6102,0.936315,-0.05665
168,10.8652,0.943015,-0.0566571
170.7,11.1197,0.957756,-0.05796
173.4,11.3749,0.953407,-0.0589057
176.1,11.6298,0.963322,-0.0592445
178.8,11.8849,0.967139,-0.05994
181.5,12.1386,0.969393,-0.062599
184.2,12.3929,0.974746,-0.0638008
186.9,12.647,0.97984,-0.06587
189.6,12.9015,0.980149,-0.0658721
192.3,13.1562,0.981771,-0.0691479
195,13.4102,0.987989,-0.0704749
197.7,13.6637,0.992805,-0.07279
200.4,13.9183,0.997489,-0.0724982
203.1,14.1733,0.993053,-0.07246
205.8,14.4287,0.993291,-0.0738259
208.5,14.6827,1.00875,-0.0783804
211.2,14.9379,1.02479,-0.0796834
213.9,15.1901,1.03718,-0.0810216
216.6,15.4481,1.03899,-0.0820318
219.3,15.703,1.04368,-0.0859652
222,15.9574,1.04758,-0.0894795
224.7,16.2131,1.06427,-0.0947978
227.4,16.4695,1.08503,-0.0915998
230.1,16.7241,1.10042,-0.0983179
232.8,16.9803,1.11481,-0.0962207
235.5,17.2356,1.10581,-0.100228
238.2,17.4918,1.09872,-0.10183
240.9,17.7472,1.08632,-0.107245
243.6,18.0031,1.06939,-0.110607
246.3,18.2591,1.06661,-0.110881
249,18.5145,1.04225,-0.117735
251.7,18.7711,1.02618,-0.122276
254.4,19.0266,1.01962,-0.125242
257.1,19.2833,1.00678,-0.131889
259.8,19.5399,0.987366,-0.137161
262.5,19.7969,0.962184,-0.142395
265.2,20.0522,0.951138,-0.149026
267.9,20.3094,0.935331,-0.15302
270.6,20.5667,0.923289,-0.161147
273.3,20.8241,0.893674,-0.170999
276,21.0813,0.884111,-0.179208
278.7,21.3398,0.960974,-0.1853
281.4,21.5977,1.01543,-0.19497
284.1,21.8554,1.03971,-0.198822
286.8,22.1139,1.05787,-0.208143
289.5,22.3689,1.06195,-0.213384
292.2,22.6285,1.05439,-0.21989
294.9,22.8863,1.06232,-0.225178
297.6,23.1448,1.04808,-0.230263
300.3,23.4022,1.0395,-0.232571
303,23.6612,1.02465,-0.236591
305.7,23.9182,1.01833,-0.240862
308.4,24.176,1.01486,-0.245804
311.1,24.4347,1.00099,-0.248439
313.8,24.692,0.980872,-0.249654
316.5,24.9509,0.974951,-0.253912
319.2,25.2086,0.963802,-0.257803
321.9,25.4668,0.949275,-0.25865
324.6,25.7237,0.945435,-0.262293
327.3,25.984,0.93953,-0.264269
330,26.2424,0.92783,-0.26688
332.7,26.5008,0.933045,-0.268197
335.4,26.7609,0.925859,-0.272149
338.1,27.0198,0.917725,-0.274151
340.8,27.2797,0.917082,-0.27611
343.5,27.54,0.914654,-0.274574
346.2,27.7995,0.907238,-0.278529
348.9,28.061,0.916692,-0.282506
351.6,28.3208,0.923972,-0.28148
354.3,28.5811,0.924054,-0.283885
357,28.8423,0.934486,-0.284697
359.7,29.1039,0.943624,-0.285105
362.4,29.3648,0.952787,-0.2851
365.1,29.6257,0.96751,-0.28741
367.8,29.8881,0.972926,-0.288712
370.5,30.1491,0.981065,-0.29071
373.2,30.4102,0.992539,-0.29136
375.9,30.6713,1.00727,-0.2907
378.6,30.9347,1.01593,-0.293304
381.3,31.1955,1.02843,-0.296895
384,31.4589,1.04155,-0.294848
386.7,31.7214,1.07106,-0.297059
389.4,31.9833,1.0977,-0.298359
392.1,32.2461,1.13651,-0.302274
394.8,32.5092,1.19034,-0.302217
397.5,32.7704,1.25323,-0.304819
400.2,33.0359,1.3259,-0.306174
402.9,33.2994,1.41717,-0.310143
405.6,33.5636,1.55033,-0.313532
408.3,33.8288,1.70951,-0.318203
411,34.0917,1.89146,-0.323429
413.7,34.3592,2.12139,-0.327476
416.4,34.6247,2.36178,-0.335626
419.1,34.8915,2.61224,-0.345148
421.8,35.1567,2.81944,-0.353452
424.5,35.4213,2.92163,-0.364725
427.2,35.6858,2.9349,-0.377309
429.9,35.946,2.82817,-0.397639
432.6,36.2087,2.65094,-0.41614
435.3,36.4692,2.41136,-0.439416
438,36.7313,2.17077,-0.464047
440.7,36.9922,2.01833,-0.492231
443.4,37.2553,1.9322,-0.523605
446.1,37.519,1.91045,-0.555128
448.8,37.7824,1.91452,-0.593036
451.5,38.0462,1.91213,-0.632063
454.2,38.3104,1.90816,-0.66518
456.9,38.575,1.89723,-0.705308
459.6,38.8401,1.86759,-0.744772
462.3,39.1042,1.84312,-0.786239
465,39.3686,1.8053,-0.828397
467.7,39.6308,1.76313,-0.863383
470.4,39.8972,1.71021,-0.899133
473.1,40.1622,1.65193,-0.933301
475.8,40.4271,1.59038,-0.96465
478.5,40.6921,1.51501,-0.994402
481.2,40.9575,1.45398,-1.02441
483.9,41.2232,1.3895,-1.05123
486.6,41.4889,1.33486,-1.07301
489.3,41.7544,1.28537,-1.09768
492,42.0209,1.24239,-1.11888
494.7,42.2863,1.21383,-1.14088
497.4,42.5524,1.18439,-1.15947
500.1,42.8189,1.16974,-1.18015
502.8,43.0849,1.14662,-1.19843
505.5,43.3521,1.13838,-1.22013
508.2,43.617,1.10611,-1.24056
510.9,43.8837,1.09486,-1.26077
513.6,44.1499,1.0876,-1.27799
516.3,44.4165,1.0672,-1.29494
519,44.6823,1.06275,-1.31654
521.7,44.951,1.04925,-1.33453
524.4,45.2175,1.03454,-1.35135
527.1,45.4854,1.02465,-1.37544
529.8,45.7518,1.01163,-1.39384
532.5,46.0204,0.998115,-1.41073
535.2,46.2883,0.976413,-1.43084
537.9,46.5572,0.965375,-1.44716
540.6,46.8247,0.962416,-1.46933
543.3,47.0924,0.949303,-1.48953
546,47.3611,0.918003,-1.5102
548.7,47.6281,0.89393,-1.53065
551.4,47.8951,0.870786,-1.54358
554.1,48.1634,0.83875,-1.56284
556.8,48.4311,0.822516,-1.5778
559.5,48.6991,0.792698,-1.59617
562.2,48.9666,0.76547,-1.61359
564.9,49.2327,0.744742,-1.62759
567.6,49.5022,0.705349,-1.6428
570.3,49.7728,0.685589,-1.65926
573,50.0416,0.664584,-1.67264
575.7,50.3103,0.650213,-1.68602
578.4,50.5784,0.623084,-1.69909
581.1,50.848,0.608728,-1.71187
583.8,51.1167,0.590733,-1.72511
586.5,51.3858,0.582811,-1.73684
589.2,51.6558,0.563298,-1.74807
591.9,51.9262,0.542862,-1.7597
594.6,52.1948,0.539719,-1.7695
597.3,52.4645,0.531337,-1.77716
600,52.7343,0.527531,-1.78767
602.7,53.004,0.529072,-1.7963
605.4,53.2732,0.534605,-1.80704
608.1,53.5428,0.545948,-1.81384
610.8,53.8119,0.548879,-1.82034
613.5,54.0835,0.54649,-1.83397
616.2,54.3535,0.549916,-1.83669
618.9,54.6233,0.55896,-1.84358
621.6,54.8938,0.581848,-1.84797
624.3,55.1641,0.577179,-1.85555
627,55.4347,0.583279,-1.85936
629.7,55.7038,0.595452,-1.86621
632.4,55.9757,0.599002,-1.8742
635.1,56.2448,0.606109,-1.88091
637.8,56.5144,0.61644,-1.88561
640.5,56.7862,0.633458,-1.88842
643.2,57.0557,0.628867,-1.89407
645.9,57.3269,0.639333,-1.89804
648.6,57.5954,0.648838,-1.89972
651.3,57.8643,0.63991,-1.90531
654,58.136,0.648611,-1.91199
656.7,58.4051,0.653937,-1.91545
659.4,58.6732,0.654761,-1.91697
662.1,58.945,0.668139,-1.92277
664.8,59.2155,0.660286,-1.92635
667.5,59.4858,0.666884,-1.93087
670.2,59.7572,0.659176,-1.93086
672.9,60.0276,0.652499,-1.93931
675.6,60.2986,0.647343,-1.94504
678.3,60.5691,0.642601,-1.94744
681,60.84,0.653711,-1.94846
683.7,61.1106,0.648657,-1.95552
686.4,61.381,0.639614,-1.95984
689.1,61.6518,0.636868,-1.96104
691.8,61.9223,0.627438,-1.965
694.5,62.1933,0.603725,-1.9702
697.2,62.465,0.596428,-1.97421
699.9,62.7368,0.599648,-1.98091
702.6,63.0054,0.572716,-1.98116
705.3,63.2791,0.569112,-1.98727
708,63.5491,0.545964,-1.9925
710.7,63.8203,0.536871,-1.99504
713.4,64.0911,0.497526,-1.99918
716.1,64.3598,0.47862,-2.00369
718.8,64.6297,0.44837,-2.00978
721.5,64.9006,0.424631,-2.01389
724.2,65.1697,0.399052,-2.01362
726.9,65.4401,0.372373,-2.02152
729.6,65.7112,0.337556,-2.02675
732.3,65.9817,0.326429,-2.02956
735,66.2519,0.293601,-2.03164
737.7,66.5225,0.254472,-2.03651
740.4,66.7954,0.21351,-2.03822
743.1,67.0669,0.196743,-2.04217
745.8,67.3393,0.164896,-2.04843
748.5,67.612,0.128643,-2.05122
751.2,67.8844,0.105913,-2.05524
753.9,68.1562,0.0739979,-2.05912
756.6,68.4276,0.0561186,-2.06252
759.3,68.6978,0.0272537,-2.06644
762,68.9719,0.0130523,-2.06932
764.7,69.2425,0.00273833,-2.07576
767.4,69.5132,-0.010794,-2.07564
770.1,69.7856,-0.0340463,-2.07961
772.8,70.0578,-0.0590769,-2.08489
775.5,70.3302,-0.0678114,-2.08554
778.2,70.6009,-0.0768971,-2.08883
780.9,70.8742,-0.101134,-2.09343
783.6,71.1492,-0.118976,-2.09476
786.3,71.4233,-0.11684,-2.0957
789,71.6967,-0.117969,-2.09971
791.7,71.972,-0.13432,-2.10135
794.4,72.2465,-0.133826,-2.10399
797.1,72.5217,-0.159174,-2.10641
799.8,72.7954,-0.161529,-2.10928
802.5,73.0682,-0.166986,-2.11056
805.2,73.3414,-0.18422,-2.11052
807.9,73.6131,-0.190772,-2.11195
810.6,73.8868,-0.190515,-2.11321
813.3,74.1603,-0.198411,-2.11687
816,74.4338,-0.206459,-2.11815
818.7,74.7058,-0.204816,-2.12045
821.4,74.9809,-0.216194,-2.12463
824.1,75.2554,-0.221686,-2.12111
826.8,75.5299,-0.226413,-2.12241
829.5,75.8062,-0.24094,-2.1232
832.2,76.0811,-0.227537,-2.1244
834.9,76.3562,-0.228229,-2.12704
837.6,76.6313,-0.230884,-2.12835
840,76.8765,-0.216465,-2.13099