File: 01_Data/SCBA_Bracket/STA/N2/30K_min/SCBA_Bracket_STA_N2_30KData_240729_R2.csv
Temp./C,Time/min,DSC/(mW/mg),Mass loss/mg
60,0,2.11746,-0.0154932
61.9,0.09281326,2.38836,-0.0155327
63.8,0.181871,2.64261,-0.0162607
65.7,0.264211,2.86175,-0.0159692
67.6,0.343639,3.05589,-0.0169987
69.5,0.420355,3.23955,-0.0165896
71.4,0.494656,3.39509,-0.0160848
73.3,0.56787,3.53789,-0.0167437
75.2,0.638951,3.64746,-0.017924
77.1,0.70888,3.74568,-0.0181135
79,0.778087,3.8524,-0.0188439
80.9,0.846233,3.93468,-0.0182832
82.8,0.913523,4.01109,-0.0183641
84.7,0.980224,4.09439,-0.01859468
86.6,1.04565,4.16882,-0.0191656
88.5,1.11147,4.23777,-0.0208076
90.4,1.17584,4.31478,-0.0223222
92.3,1.24055,4.38326,-0.02100098
94.2,1.30424,4.46136,-0.02228238
96.1,1.36768,4.51042,-0.0219878
98,1.43106,4.56935,-0.0225176
99.9,1.49401,4.6023,-0.0214361
101.8,1.55664,4.6285,-0.0207729
103.7,1.61945,4.63781,-0.0221897
105.6,1.68211,4.64605,-0.0222486
107.5,1.74444,4.65127,-0.0221625
109.4,1.80698,4.65771,-0.0221489
111.3,1.86882,4.66931,-0.0208588
113.2,1.93072,4.6749,-0.0234621
115.1,1.99273,4.68611,-0.0234947
117,2.05498,4.71211,-0.0235054
118.9,2.11745,4.72581,-0.0221817
120.8,2.17851,4.74979,-0.0222066
122.7,2.24083,4.76773,-0.0234999
124.6,2.3025,4.78865,-0.0247919
126.5,2.36443,4.81125,-0.02481
128.4,2.4257,4.83867,-0.02481
130.3,2.48679,4.87318,-0.0248591
132.2,2.54788,4.90002,-0.0245822
134.1,2.60904,4.92811,-0.0247936
136,2.66989,4.97116,-0.0234912
137.9,2.73071,5.01096,-0.0234902
139.8,2.79049,5.03896,-0.0234901
141.7,2.85163,5.07958,-0.0237707
143.6,2.91193,5.11457,-0.0241499
145.5,2.97188,5.15603,-0.02415
147.4,3.03216,5.1874,-0.0241497
149.3,3.09178,5.22,-0.0248864
151.2,3.15157,5.26573,-0.0254714
153.1,3.21178,5.31601,-0.0267963
155,3.27081,5.34847,-0.02679
156.9,3.33045,5.39325,-0.02679
158.8,3.39031,5.42481,-0.02679
160.7,3.44931,5.46514,-0.02679
162.6,3.50831,5.51042,-0.0267903
164.5,3.56753,5.55085,-0.0256689
166.4,3.62665,5.59089,-0.0254767
168.3,3.68568,5.62824,-0.026775
170.2,3.74484,5.66701,-0.02679
172.1,3.80388,5.71438,-0.02679
174,3.86267,5.75891,-0.02679
175.9,3.92074,5.79481,-0.02679
177.8,3.97998,5.84478,-0.02679
179.7,4.03844,5.88339,-0.02679
181.6,4.09716,5.92732,-0.02679
183.5,4.15562,5.97089,-0.0267844
185.4,4.2139,6.01217,-0.0281077
187.3,4.27205,6.04759,-0.0281102
189.2,4.33022,6.10404,-0.0294224
191.1,4.38767,6.1471,-0.0294297
193,4.4461,6.20251,-0.030401
194.9,4.50418,6.24169,-0.03041
196.8,4.56199,6.30662,-0.0304124
198.7,4.61956,6.37107,-0.03172968
200.6,4.67758,6.47652,-0.031717
202.5,4.73569,6.61235,-0.0304168
204.4,4.7943,6.78454,-0.0317531
206.3,4.85237,7.00135,-0.0330399
208.2,4.91034,7.30307,-0.03304
210.1,4.97063,7.77768,-0.0335833
212,5.03038,8.44731,-0.0330499
213.9,5.0917,9.34961,-0.0331575
215.8,5.15303,10.4464,-0.0343595
217.7,5.21546,11.69,-0.0330051
219.6,5.27757,12.9212,-0.0330429
221.5,5.33752,13.6523,-0.0343588
223.4,5.3918,12.5972,-0.034108
225.3,5.44301,10.9219,-0.0330583
227.2,5.49655,9.63016,-0.03436999
229.1,5.55068,8.69492,-0.0343739
231,5.60551,8.02325,-0.0356792
232.9,5.66083,7.55816,-0.0357281
234.8,5.71669,7.2304,-0.0343729
236.7,5.77244,7.00396,-0.0353474
238.6,5.82922,6.84727,-0.03536
240.5,5.88588,6.74888,-0.0353601
242.4,5.94246,6.68094,-0.0349827
244.3,5.99916,6.63797,-0.0327194
246.2,6.05613,6.60152,-0.03272
248.1,6.11305,6.58956,-0.0327204
250,6.16987,6.58286,-0.0333998
251.9,6.22713,6.57896,-0.0340343
253.8,6.28405,6.57006,-0.0345581
255.7,6.34089,6.56802,-0.0340224
257.6,6.39794,6.57046,-0.0340287
259.5,6.4552,6.57122,-0.0327133
261.4,6.51232,6.5837,-0.03274876
263.3,6.56955,6.57929,-0.0340296
265.2,6.6267,6.58912,-0.03403
267.1,6.68353,6.58546,-0.03403
269,6.74096,6.58314,-0.03403
270.9,6.79804,6.58883,-0.03403
272.8,6.85547,6.59699,-0.0340244
274.7,6.91248,6.59914,-0.0353489
276.6,6.96988,6.59579,-0.0353499
278.5,7.02734,6.60413,-0.0361217
280.4,7.08464,6.60985,-0.0363209
282.3,7.14186,6.61793,-0.0350196
284.2,7.19901,6.61971,-0.03502
286.1,7.25656,6.62279,-0.0350199
288,7.31409,6.6308,-0.0347976
289.9,7.37144,6.63286,-0.03403
291.8,7.42866,6.63806,-0.0344607
293.7,7.48626,6.63925,-0.0340457
295.6,7.54372,6.64448,-0.0340594
297.5,7.60116,6.64246,-0.036673
299.4,7.65864,6.64569,-0.03612133
301.3,7.71624,6.65599,-0.03536
303.2,7.77372,6.64433,-0.03536
305.1,7.83169,6.64664,-0.03536
307,7.88892,6.64946,-0.035251
308.9,7.94689,6.64801,-0.0365207
310.8,8.00442,6.66103,-0.03667
312.7,8.06231,6.65812,-0.03667
314.6,8.1195,6.65874,-0.03667
316.5,8.17739,6.65618,-0.03667
318.4,8.23515,6.66562,-0.03667
320.3,8.29297,6.64799,-0.0366699
322.2,8.35066,6.65244,-0.0375892
324.1,8.40859,6.63976,-0.0379901
326,8.46658,6.63711,-0.0393935
327.9,8.52445,6.63311,-0.0393103
329.8,8.5818,6.62696,-0.039822
331.7,8.64009,6.61564,-0.0393137
333.6,8.69782,6.62775,-0.0386413
335.5,8.75604,6.61124,-0.0392938
337.4,8.814,6.60755,-0.0407072
339.3,8.8718,6.60768,-0.0406372
341.2,8.93044,6.59507,-0.0406209
343.1,8.9883,6.59412,-0.041945
345,9.04656,6.59386,-0.04224236
346.9,9.10463,6.59951,-0.0429362
348.8,9.16281,6.58693,-0.0420849
350.7,9.22045,6.58668,-0.0432497
352.6,9.27951,6.57863,-0.0432469
354.5,9.33795,6.58876,-0.0452718
356.4,9.39608,6.57393,-0.04523
358.3,9.45459,6.57325,-0.0452291
360.2,9.51315,6.58291,-0.0462082
362.1,9.57135,6.57462,-0.0462174
364,9.63011,6.57281,-0.0474138
365.9,9.68862,6.57643,-0.0478249
367.8,9.74732,6.57664,-0.0491296
369.7,9.80611,6.58489,-0.0513661
371.6,9.86504,6.58448,-0.0532581
373.5,9.92358,6.59327,-0.0545405
375.4,9.98251,6.59374,-0.0559354
377.3,10.0413,6.59147,-0.0566031
379.2,10.1003,6.59916,-0.0586346
381.1,10.1592,6.60369,-0.0604444
383,10.2182,6.61646,-0.0629697
384.9,10.2774,6.63385,-0.0653433
386.8,10.3364,6.64889,-0.0674209
388.7,10.3951,6.66666,-0.07039646
390.6,10.4545,6.70127,-0.0744582
392.5,10.5137,6.72846,-0.076791
394.4,10.5732,6.76754,-0.0813277
396.3,10.6325,6.80435,-0.0867371
398.2,10.6913,6.84012,-0.0907805
400.1,10.7514,6.89263,-0.0960502
402,10.8112,6.94019,-0.100531
403.9,10.8706,6.99652,-0.106858
405.8,10.9302,7.05905,-0.113204
407.7,10.9904,7.1126,-0.12011
409.6,11.05,7.19076,-0.128559
411.5,11.1098,7.26741,-0.136595
413.4,11.1695,7.36465,-0.145458
415.3,11.2293,7.45706,-0.155092
417.2,11.29,7.56589,-0.165836
419.1,11.3497,7.67858,-0.177332
421,11.4102,7.80385,-0.18945
422.9,11.4702,7.91986,-0.201459
424.8,11.5304,8.05886,-0.214139
426.7,11.5908,8.1904,-0.230201
428.6,11.6513,8.3452,-0.246301
430.5,11.7119,8.51041,-0.263365
432.4,11.7728,8.70955,-0.281044
434.3,11.8338,8.93949,-0.300165
436.2,11.8947,9.18209,-0.32184
438.1,11.9557,9.38086,-0.345014
440,12.0173,9.72738,-0.371691
441.9,12.0783,9.95099,-0.40114
443.8,12.1396,10.2279,-0.433589
445.7,12.2015,10.5666,-0.468137
447.6,12.2634,10.9536,-0.505378
449.5,12.3253,11.361,-0.545391
451.4,12.3877,11.7559,-0.590892
453.3,12.4498,12.1782,-0.638085
455.2,12.512,12.6531,-0.690692
457.1,12.5749,13.2483,-0.749134
459,12.6373,13.7119,-0.810036
460.9,12.7009,14.3665,-0.882673
462.8,12.7638,14.9576,-0.954334
464.7,12.8272,15.6277,-1.03737
466.6,12.8905,16.231,-1.12428
468.5,12.9539,16.7846,-1.22108
470.4,13.0172,17.3182,-1.32534
472.3,13.0803,17.9796,-1.43364
474.2,13.1447,18.5716,-1.55827
476.1,13.2075,19.0053,-1.68174
478,13.2707,19.4185,-1.81877
479.9,13.3332,19.5816,-1.95893
481.8,13.3941,19.4106,-2.09755
483.7,13.4542,18.9647,-2.24101
485.6,13.5132,18.2284,-2.37404
487.5,13.5711,17.1611,-2.50262
489.4,13.6278,15.8516,-2.62515
491.3,13.6839,14.3304,-2.73264
493.2,13.7395,12.679,-2.83745
495.1,13.7949,10.9968,-2.92506
497,13.8499,9.32449,-3.00602
498.9,13.9052,7.6849,-3.07689
500.8,13.9603,6.18563,-3.13264
502.7,14.0164,4.86467,-3.18149
504.6,14.0732,3.75321,-3.2193
506.5,14.1305,2.88712,-3.2501
508.4,14.1881,2.22895,-3.27532
510.3,14.2472,1.74323,-3.29362
512.2,14.3065,1.37221,-3.30831
514.1,14.366,1.0872,-3.31925
516,14.4267,0.890767,-3.32782
517.9,14.4872,0.732168,-3.33265
519.8,14.5484,0.643767,-3.33649
521.7,14.6092,0.586355,-3.3387
523.6,14.6705,0.550072,-3.34016
525.5,14.7319,0.523149,-3.34117
527.4,14.7934,0.495556,-3.34083
529.3,14.8551,0.488361,-3.34202
531.2,14.917,0.477772,-3.34213
533.1,14.9789,0.461365,-3.34213
535,15.0406,0.447582,-3.34213
536.9,15.1023,0.444608,-3.34319
538.8,15.1645,0.444893,-3.34345
540.7,15.2266,0.423187,-3.34295
542.6,15.2886,0.412314,-3.34246
544.5,15.3503,0.40128,-3.34246
546.4,15.4126,0.385484,-3.34214
548.3,15.4742,0.371465,-3.34147
550.2,15.5369,0.331298,-3.34147
552.1,15.5991,0.323527,-3.34146
554,15.6613,0.308626,-3.34279
555.9,15.7238,0.321869,-3.34279
557.8,15.7862,0.321983,-3.34279
559.7,15.8488,0.336893,-3.34279
561.6,15.9109,0.334834,-3.34279
563.5,15.9735,0.330217,-3.34278
565.4,16.0358,0.340413,-3.34147
567.3,16.0984,0.335268,-3.34131
569.2,16.1609,0.337562,-3.34148
571.1,16.2233,0.326229,-3.3426
573,16.286,0.342473,-3.34279
574.9,16.3488,0.330223,-3.34411
576.8,16.4114,0.336828,-3.34371
578.7,16.4742,0.341609,-3.34345
580.6,16.5369,0.346414,-3.34417
582.5,16.5993,0.348256,-3.34476
584.4,16.6622,0.34567,-3.34345
586.3,16.7254,0.348796,-3.34345
588.2,16.788,0.341986,-3.34222
590.1,16.8509,0.33716,-3.34082
592,16.9137,0.329066,-3.34221
593.9,16.9764,0.329724,-3.34213
595.8,17.0397,0.324075,-3.34267
597.7,17.1027,0.326663,-3.34378
599.6,17.1657,0.324192,-3.34378
600,17.1791,0.316258,-3.34379