File: 01_Data/SCBA_Bracket/STA/N2/30K_min/SCBA_Bracket_STA_N2_30KData_240729_R1.csv
Temp./C,Time/min,DSC/(mW/mg),Mass loss/mg
60,0,1.99445,-0.0168566
61.9,0.0939293,2.25714,-0.0162709
63.8,0.181319,2.49272,-0.0173307
65.7,0.264637,2.70544,-0.0171678
67.6,0.344304,2.89198,-0.0187433
69.5,0.421166,3.06309,-0.0189072
71.4,0.495652,3.20731,-0.01769526
73.3,0.568742,3.33561,-0.0200373
75.2,0.639814,3.45151,-0.0194374
77.1,0.709411,3.54748,-0.0194099
79,0.7785868,3.63247,-0.0192612
80.9,0.84634,3.71777,-0.0193596
82.8,0.913771,3.78745,-0.0205321
84.7,0.980222,3.85875,-0.02233521
86.6,1.04591,3.92252,-0.0211195
88.5,1.11111,3.98799,-0.0211975
90.4,1.17564,4.04832,-0.02124
92.3,1.24018,4.10275,-0.0202203
94.2,1.30389,4.15841,-0.0209793
96.1,1.36774,4.20957,-0.0209409
98,1.4298,4.25453,-0.0223276
99.9,1.49372,4.27934,-0.0204992
101.8,1.55631,4.30152,-0.021875
103.7,1.61911,4.31228,-0.02184268
105.6,1.68169,4.31733,-0.0233268
107.5,1.74388,4.31092,-0.0228622
109.4,1.80571,4.31574,-0.0232767
111.3,1.86842,4.32565,-0.0219586
113.2,1.93075,4.32861,-0.0224229
115.1,1.99241,4.33457,-0.0232292
117,2.05461,4.34173,-0.0245961
118.9,2.11653,4.35458,-0.023281
120.8,2.1784,4.36452,-0.02328
122.7,2.24091,4.37955,-0.0239127
124.6,2.30228,4.39757,-0.0232801
126.5,2.36373,4.41641,-0.02328
128.4,2.42521,4.43949,-0.023281
130.3,2.48647,4.45471,-0.0246313
132.2,2.54747,4.47791,-0.0232807
134.1,2.60841,4.50149,-0.02328
136,2.6694,4.52727,-0.02328
137.9,2.72986,4.56649,-0.0232897
139.8,2.79014,4.59279,-0.0222902
141.7,2.8509,4.62895,-0.0222894
143.6,2.91129,4.64934,-0.0229382
145.5,2.971,4.684,-0.0239272
147.4,3.03138,4.71305,-0.02458959
149.3,3.09088,4.7453,-0.02459
151.2,3.15098,4.77572,-0.0245245
153.1,3.21071,4.81415,-0.02326772
155,3.27043,4.84907,-0.0245863
156.9,3.32972,4.88246,-0.0232693
158.8,3.38924,4.9142,-0.0232701
160.7,3.44868,4.9416,-0.0255331
162.6,3.50786,4.99029,-0.0247044
164.5,3.56729,5.01689,-0.0242609
166.4,3.62655,5.05268,-0.0256081
168.3,3.68575,5.09028,-0.0255839
170.2,3.74412,5.1303,-0.0242728
172.1,3.80359,5.16236,-0.0245748
174,3.86211,5.19899,-0.0273161
175.9,3.92109,5.21975,-0.0272293
177.8,3.98013,5.26139,-0.0258581
179.7,4.03884,5.29733,-0.0251391
181.6,4.09718,5.34161,-0.0273399
183.5,4.1556,5.37324,-0.0283052
185.4,4.21429,5.41222,-0.0260854
187.3,4.27233,5.46167,-0.0269191
189.2,4.33057,5.50168,-0.0279899
191.1,4.38852,5.54192,-0.0280004
193,4.44705,5.59461,-0.0293102
194.9,4.50492,5.63511,-0.02931
196.8,4.56301,5.68791,-0.02931
198.7,4.62115,5.75906,-0.0293087
200.6,4.67901,5.84544,-0.03063304
202.5,4.73719,5.9675,-0.03063
204.4,4.79522,6.1344,-0.0306296
206.3,4.85377,6.32409,-0.0313848
208.2,4.91226,6.62113,-0.0319487
210.1,4.97169,7.0685,-0.03194999
212,5.03146,7.70325,-0.0319267
213.9,5.09226,8.55574,-0.0306398
215.8,5.15405,9.57528,-0.03064
217.7,5.21531,10.6139,-0.0306333
219.6,5.27695,11.6328,-0.0319491
221.5,5.33778,12.4748,-0.03195022
223.4,5.39481,12.252,-0.03125891
225.3,5.44673,10.6271,-0.03097041
227.2,5.49967,9.23016,-0.03097
229.1,5.5536,8.21307,-0.0322555
231,5.60801,7.48612,-0.03228
232.9,5.66344,6.96122,-0.0330424
234.8,5.7194,6.57702,-0.0336
236.7,5.77546,6.32449,-0.0333032
238.6,5.83192,6.14794,-0.0322797
240.5,5.88857,6.02515,-0.0322827
242.4,5.9451,5.94876,-0.0309616
244.3,6.00247,5.88658,-0.0324682
246.2,6.05921,5.84661,-0.0338219
248.1,6.1159,5.82182,-0.0338195
250,6.17317,5.81218,-0.0346964
251.9,6.2302,5.79314,-0.0338103
253.8,6.28739,5.7842,-0.032481
255.7,6.34449,5.78507,-0.0325
257.6,6.40172,5.78865,-0.0324999
259.5,6.45859,5.78177,-0.0327998
261.4,6.51602,5.7736,-0.0334813
263.3,6.5728,5.77234,-0.03381205
265.2,6.6302,5.77742,-0.0324945
267.1,6.68764,5.78017,-0.0330107
269,6.74477,5.77227,-0.0338102
270.9,6.80216,5.76882,-0.03381
272.8,6.85927,5.77446,-0.03381
274.7,6.91584,5.78014,-0.03383033
276.6,6.9738,5.77868,-0.0348607
278.5,7.03085,5.78579,-0.0334921
280.4,7.08843,5.77797,-0.0325042
282.3,7.14594,5.78574,-0.0325
284.2,7.20215,5.79044,-0.0324655
286.1,7.2604,5.78217,-0.0338195
288,7.31762,5.78789,-0.03380927
289.9,7.37531,5.79461,-0.0325026
291.8,7.43256,5.79028,-0.0311816
293.7,7.48998,5.78365,-0.0311692
295.6,7.5475,5.77665,-0.0325002
297.5,7.60473,5.7778,-0.0325014
299.4,7.66244,5.78327,-0.03382733
301.3,7.71982,5.77268,-0.03382
303.2,7.77764,5.77035,-0.0338265
305.1,7.83483,5.77156,-0.0325018
307,7.89247,5.7665,-0.0325033
308.9,7.95047,5.75857,-0.0344961
310.8,8.00796,5.7553,-0.03447
312.7,8.06478,5.747,-0.03447
314.6,8.12315,5.74916,-0.03447
316.5,8.18059,5.75146,-0.0344705
318.4,8.23888,5.75138,-0.033156
320.3,8.29597,5.75238,-0.0330925
322.2,8.35416,5.7417,-0.0345319
324.1,8.41185,5.7432,-0.0357905
326,8.46875,5.74194,-0.03579
327.9,8.52714,5.74989,-0.0357942
329.8,8.58507,5.74766,-0.0363986
331.7,8.6428,5.74496,-0.03581903
333.6,8.70092,5.75099,-0.0358
335.5,8.7591,5.74964,-0.0358
337.4,8.81695,5.75333,-0.0358
339.3,8.87484,5.75399,-0.0358002
341.2,8.93289,5.75673,-0.0355206
343.1,8.99087,5.75,-0.0359604
345,9.04841,5.75104,-0.0384301
346.9,9.10707,5.74752,-0.03843
348.8,9.16549,5.75092,-0.0394094
350.7,9.22363,5.75506,-0.0387563
352.6,9.28173,5.75567,-0.0387602
354.5,9.33952,5.75458,-0.03975565
356.4,9.39839,5.76512,-0.0397542
358.3,9.45678,5.75196,-0.0400729
360.2,9.5152,5.75696,-0.0414747
362.1,9.57372,5.76511,-0.0427115
364,9.63168,5.76822,-0.04371099
365.9,9.69082,5.78096,-0.0437075
367.8,9.74961,5.78417,-0.0450198
369.7,9.8082,5.79845,-0.0463096
371.6,9.86658,5.81131,-0.0466877
373.5,9.92534,5.82415,-0.0476556
375.4,9.98421,5.84277,-0.0489821
377.3,10.0431,5.85463,-0.0507086
379.2,10.1014,5.86662,-0.0518355
381.1,10.1609,5.8887,-0.0536286
383,10.2198,5.90042,-0.0558827
384.9,10.2786,5.93477,-0.057162
386.8,10.3381,5.94375,-0.0600265
388.7,10.3971,5.98141,-0.0631892
390.6,10.4561,5.99987,-0.0660687
392.5,10.5153,6.03768,-0.069494
394.4,10.5747,6.06867,-0.0738583
396.3,10.6342,6.09811,-0.0775585
398.2,10.6936,6.14804,-0.08165609
400.1,10.753,6.20338,-0.085803
402,10.8129,6.24753,-0.0910779
403.9,10.8722,6.31467,-0.0975043
405.8,10.9319,6.37487,-0.103925
407.7,10.9917,6.44168,-0.108869
409.6,11.051,6.52153,-0.11529
411.5,11.111,6.59735,-0.124587
413.4,11.1714,6.68527,-0.132779
415.3,11.2315,6.7843,-0.143122
417.2,11.2914,6.90655,-0.151931
419.1,11.3519,7.01404,-0.164128
421,11.4116,7.1338,-0.174902
422.9,11.4726,7.28304,-0.187762
424.8,11.5331,7.456,-0.202395
426.7,11.5937,7.62074,-0.217583
428.6,11.6546,7.80564,-0.233393
430.5,11.7151,8.01201,-0.251031
432.4,11.7758,8.2377,-0.269595
434.3,11.8369,8.47771,-0.289993
436.2,11.898,8.68495,-0.311925
438.1,11.9589,8.85774,-0.33509
440,12.02,9.04734,-0.358931
441.9,12.0813,9.28179,-0.389953
443.8,12.1432,9.72059,-0.419446
445.7,12.2036,9.88918,-0.459898
447.6,12.2659,10.2288,-0.496624
449.5,12.3276,10.6289,-0.536627
451.4,12.3903,11.0509,-0.583935
453.3,12.4522,11.4982,-0.632329
455.2,12.5144,11.9294,-0.688121
457.1,12.577,12.3996,-0.74344
459,12.6397,12.9305,-0.803772
460.9,12.7038,13.7247,-0.869488
462.8,12.7667,14.3851,-0.954457
464.7,12.8289,14.8467,-1.03703
466.6,12.8926,15.4081,-1.12736
468.5,12.9558,15.9671,-1.22786
470.4,13.0201,16.7276,-1.33097
472.3,13.0836,17.2811,-1.44906
474.2,13.1471,17.9357,-1.56815
476.1,13.2103,18.3388,-1.70073
478,13.273,18.7352,-1.84017
479.9,13.3356,18.8952,-1.97948
481.8,13.3964,18.6687,-2.12355
483.7,13.4568,18.3066,-2.25957
485.6,13.5155,17.4992,-2.39962
487.5,13.5732,16.4361,-2.52572
489.4,13.6304,15.089,-2.65079
491.3,13.686,13.5629,-2.76444
493.2,13.7416,11.9083,-2.86304
495.1,13.797,10.2002,-2.95712
497,13.8516,8.58247,-3.03214
498.9,13.9076,7.02416,-3.10075
500.8,13.9636,5.62726,-3.16013
502.7,14.0197,4.40651,-3.20639
504.6,14.0758,3.39638,-3.24644
506.5,14.1342,2.56477,-3.27589
508.4,14.1926,1.94695,-3.30004
510.3,14.2517,1.47046,-3.32046
512.2,14.3111,1.11639,-3.33672
514.1,14.3712,0.84789,-3.34807
516,14.4315,0.642411,-3.35546
517.9,14.4917,0.489854,-3.36091
519.8,14.5526,0.397449,-3.36497
521.7,14.613,0.330563,-3.36766
523.6,14.6749,0.293376,-3.36915
525.5,14.7364,0.265162,-3.37044
527.4,14.7979,0.249861,-3.37046
529.3,14.8594,0.240671,-3.37106
531.2,14.921,0.23693,-3.37079
533.1,14.9824,0.22674,-3.37079
535,15.0445,0.216244,-3.37078
536.9,15.106,0.201546,-3.37047
538.8,15.1682,0.192733,-3.37064
540.7,15.2299,0.196424,-3.3698
542.6,15.2918,0.191668,-3.37111
544.5,15.3531,0.185521,-3.37113
546.4,15.4157,0.184947,-3.37046
548.3,15.4779,0.18235,-3.3704
550.2,15.54,0.185596,-3.37273
552.1,15.6021,0.178183,-3.37276
554,15.6641,0.171112,-3.37276
555.9,15.7264,0.17433,-3.37144
557.8,15.789,0.170992,-3.37144
559.7,15.8509,0.162732,-3.37046
561.6,15.9133,0.158853,-3.37046
563.5,15.976,0.160742,-3.37187
565.4,16.0382,0.153381,-3.37177
567.3,16.1008,0.14036,-3.37045
569.2,16.1633,0.152889,-3.37177
571.1,16.2256,0.135739,-3.37168
573,16.2884,0.137526,-3.37111
574.9,16.351,0.128164,-3.37078
576.8,16.4136,0.124193,-3.37078
578.7,16.4762,0.114171,-3.37078
580.6,16.5392,0.111268,-3.3721
582.5,16.6018,0.108968,-3.37177
584.4,16.6647,0.0997902,-3.37123
586.3,16.7278,0.103922,-3.37079
588.2,16.7903,0.0923429,-3.36947
590.1,16.8535,0.0853885,-3.36947
592,16.9168,0.07970589,-3.37078
593.9,16.9796,0.0576626,-3.3713
595.8,17.0429,0.05414765,-3.37045
597.7,17.1055,0.0457426,-3.37046
599.6,17.1688,0.03722104,-3.37046
600,17.1821,0.0296927,-3.37046