File: 01_Data/PEVA/Cone/PEVA_Cone_HF50Scan_240820_R3.csv
Names,Time,Stack TC,Smoke TC,Exh Press,Smoke Comp,Smoke Meas,CO Meter,CO2 Meter,O2 Meter,Sample Mass,Ext Coeff,Start Test,Flame Verif
Chan Gain,,500,500,1,1,1,1,1,1,1,1,1.0,1.0
Offset,,0,0,0.143687,0,0,0,0,0,0,0,0.0,0.0
Gain,,1,1,25.011,11.7833,14.1275,1,1,1,1.00092,1.04852,1.0,1.0
Units,sec,C,C,Pa,%,%,%,%,%,g,/m,,
Baseline,,55.5482,58.6073,168.812,100.625,100.687,-0.000835318,0.0418549,20.9422,-448.615,-0.0056666,,
7,1.5,55.0471,58.1815,164.647,100.959,101.032,-0.000472674,0.0490296,20.9402,118.248,-0.00663468,0.0,0.0
14,3.25,55.1076,58.5187,170.566,100.917,100.809,-0.000467237,0.0530737,20.9369,118.168,0.00989213,0.0,0.0
21,5,55.2886,58.0053,171.834,100.9,100.082,-0.000387708,0.0559216,20.9319,117.968,0.0748003,0.0,0.0
28,6.75,55.2389,58.5217,152.095,100.849,58.7588,-0.000338624,0.0557955,20.9283,117.618,4.96833,0.0,1.0
35,8.5,57.7845,62.9256,138.159,100.834,29.2302,-0.000360564,0.0541975,20.9266,116.617,11.389,0.0,1.0
42,10.25,62.9403,70.2043,142.476,100.794,29.8981,-0.000446303,0.0520618,20.9272,115.986,11.1776,0.0,1.0
49,12,65.253,73.788,156.879,100.746,27.4389,-0.000560338,0.0499838,20.9291,115.626,11.9626,0.0,0.0
56,13.75,66.7267,75.7981,154.677,100.706,44.3869,-0.000451966,0.0602805,20.9306,115.366,7.53515,0.0,0.0
63,15.5,67.4894,76.3626,156.836,100.666,61.7971,0.00137383,0.128419,20.9313,115.246,4.48794,0.0,0.0
70,17.25,67.3724,76.5695,161.844,100.646,81.0586,0.0140671,0.344564,20.9178,115.166,1.99071,0.0,0.0
77,19,66.966,76.1763,159.016,100.578,90.1711,0.0345733,0.501377,20.7159,115.126,1.00455,0.0,0.0
84,20.75,66.3616,74.782,165.708,100.504,95.23,0.0516445,0.534978,20.3977,115.116,0.49578,0.0,0.0
91,22.5,65.3005,74.0711,170.332,100.427,98.264,0.0564275,0.493886,20.2326,115.106,0.200286,0.0,0.0
98,24.25,65.3427,72.5721,169.178,100.39,99.613,0.05139,0.425537,20.2077,115.096,0.07145,0.0,0.0
105,26,64.1769,71.607,170.035,100.394,100.153,0.0414573,0.348171,20.2586,115.076,0.0220676,0.0,0.0
112,27.75,62.6791,69.8528,166.765,100.363,100.22,0.030458,0.275122,20.3732,115.106,0.0130996,0.0,0.0
119,29.5,62.0819,68.9258,167.275,100.313,100.233,0.0216193,0.211678,20.513,115.056,0.00729712,0.0,0.0
126,31.25,61.2026,68.0104,167.271,100.314,100.317,0.0161149,0.16772,20.6138,115.066,-0.00020942,0.0,0.0
133,33,60.5205,66.8327,170.076,100.291,100.305,0.0108189,0.125449,20.7038,115.046,-0.00121328,0.0,0.0
140,34.75,60.4902,66.2327,164.553,100.254,100.272,0.0069683,0.0970341,20.7762,115.066,-0.00164424,0.0,0.0
147,36.5,59.5903,65.5527,168.469,100.192,100.215,0.00423095,0.0773713,20.8332,115.076,-0.00209332,0.0,0.0
154,38.25,59.6064,65.2266,169.916,100.141,100.209,0.00252067,0.0652421,20.8688,115.056,-0.00623366,0.0,0.0
161,40,59.442,64.2214,167.107,100.133,100.181,0.00144735,0.0572692,20.8939,115.056,-0.00445477,0.0,0.0
168,41.75,59.4614,64.3156,167.794,100.105,100.151,0.000774352,0.0523606,20.91,115.066,-0.00429955,0.0,0.0
175,43.5,58.6946,63.9487,167.721,100.061,100.107,0.000377016,0.0493748,20.921,115.066,-0.00421234,0.0,0.0
182,45.25,58.9754,63.2094,169.764,100.01,100.076,8.62441e-05,0.0475657,20.9279,115.046,-0.00613382,0.0,0.0
189,47,58.5295,62.8671,163.847,99.9892,100.035,-0.000125113,0.0463163,20.9319,115.006,-0.00425403,0.0,0.0
196,48.75,58.0635,63.1861,167.729,99.9641,100.025,-0.000131539,0.0454296,20.9355,115.006,-0.00561817,0.0,0.0
203,50.5,58.0332,62.1031,162.679,99.9303,99.9941,-9.75166e-05,0.0448655,20.9373,115.006,-0.00587434,0.0,0.0
210,52.25,58.4262,62.4751,167.552,99.8911,99.9467,-0.000143543,0.044545,20.9381,114.965,-0.005119,0.0,0.0
217,54,57.7325,61.7556,168.019,99.9029,99.9264,-0.000300625,0.0442307,20.9385,114.986,-0.00216186,0.0,0.0
224,55.75,57.4129,61.9169,167.204,99.9371,99.9687,-0.000411713,0.044012,20.9383,114.965,-0.0029049,0.0,0.0
231,57.5,57.8653,61.7739,169.11,99.9346,99.9846,-0.000486952,0.043906,20.9388,114.965,-0.0046045,0.0,0.0
238,59.25,57.9465,61.4756,169.444,99.9464,99.9428,-0.000517807,0.0438031,20.9385,114.945,0.000334404,0.0,0.0
245,61,57.3448,61.3078,167.252,99.9482,99.9937,-0.000414983,0.0437891,20.9383,114.935,-0.00417998,0.0,0.0
252,62.75,57.435,61.3587,170.378,99.9393,100.022,-0.000308264,0.043875,20.9383,114.986,-0.00762443,0.0,0.0
259,64.5,57.2223,61.2308,167.252,99.9231,99.9812,-0.00022172,0.0438744,20.9385,114.986,-0.00534609,0.0,0.0
266,66.25,57.4039,61.0579,166.413,99.8745,99.948,-0.000180087,0.0438133,20.939,114.975,-0.00676141,0.0,0.0
273,68,57.2952,61.2044,167.82,99.8594,99.9773,-0.000136975,0.0439139,20.9393,114.986,-0.0108495,0.0,0.0
280,69.75,56.9517,60.9403,168.455,99.8702,99.9532,-0.000121144,0.043971,20.9394,114.935,-0.00763485,0.0,0.0
287,71.5,57.3946,60.777,167.279,99.8591,99.8954,-9.92854e-05,0.0439758,20.9395,114.945,-0.00334416,0.0,0.0
294,73.25,57.2235,60.9365,164.046,99.8548,99.9501,-2.89678e-07,0.0439173,20.9393,114.925,-0.00878164,0.0,0.0
301,75,56.654,60.8822,166.697,99.8238,99.8967,0.000140453,0.0439938,20.9382,114.905,-0.00670929,0.0,0.0
308,76.75,56.9261,60.7826,165.626,99.8023,99.8251,0.000217376,0.0440884,20.9373,114.875,-0.00210538,0.0,0.0
315,78.5,57.2167,60.6567,173.337,99.8278,99.9018,0.000312997,0.0442525,20.9368,114.885,-0.00682121,0.0,0.0
322,80.25,56.7451,60.8214,168.652,99.831,99.8165,0.000477779,0.0444709,20.9365,114.875,0.00133974,0.0,0.0
329,82,57.024,60.6882,168.182,99.7954,99.8402,0.000642762,0.0447204,20.9364,114.845,-0.00412569,0.0,0.0
336,83.75,56.7066,60.3869,165.471,99.8005,99.81,0.000752486,0.0450311,20.9364,114.855,-0.00088157,0.0,0.0
343,85.5,56.9481,60.407,165.911,99.7663,99.8238,0.000811146,0.0452841,20.9363,114.855,-0.00530111,0.0,0.0
350,87.25,56.6757,60.2705,170.281,99.7854,99.882,0.000846965,0.0454636,20.9366,114.845,-0.00890566,0.0,0.0
357,89,56.7564,60.8072,164.073,99.8109,99.8066,0.000839247,0.0455367,20.9368,114.825,0.000396898,0.0,0.0
364,90.75,57.7516,60.4263,164.052,99.7738,99.7954,0.000823259,0.0454883,20.9359,114.825,-0.0019831,0.0,0.0
371,92.5,56.8638,60.578,161.324,99.7922,99.7889,0.000862547,0.0456943,20.9361,114.795,0.000302609,0.0,0.0
378,94.25,57.0514,60.2653,173.662,99.7778,99.9156,0.000926574,0.0459422,20.9365,114.815,-0.0126983,0.0,0.0
385,96,57.1547,60.4149,173.204,99.7961,99.8755,0.00102221,0.0463034,20.9368,114.785,-0.00731553,0.0,0.0
392,97.75,56.8869,60.0322,168.826,99.7562,99.8648,0.00117231,0.0465465,20.9373,114.785,-0.0100021,0.0,0.0
399,99.5,56.9391,60.6891,168.681,99.7598,99.8247,0.00134242,0.0468333,20.9366,114.735,-0.00597747,0.0,0.0
406,101.25,56.7615,60.5031,173.017,99.7483,99.8497,0.00150509,0.0471095,20.936,114.745,-0.00934247,0.0,0.0
413,103,57.0823,60.113,164.074,99.7836,99.8316,0.00163011,0.0473249,20.9358,114.765,-0.00442515,0.0,0.0
420,104.75,56.6572,60.5445,165.643,99.7562,99.8307,0.00169953,0.0475472,20.935,114.755,-0.0068651,0.0,0.0
427,106.5,56.8179,59.9199,170.921,99.748,99.8566,0.00170626,0.0477946,20.934,114.725,-0.0100109,0.0,0.0
434,108.25,56.6444,60.2933,161.897,99.7526,99.8432,0.0016802,0.0477764,20.9336,114.755,-0.00834815,0.0,0.0
441,110,56.976,60.1076,167.758,99.7595,99.8497,0.00166472,0.0479246,20.9334,114.715,-0.00831468,0.0,0.0
448,111.75,56.8472,60.2283,161.758,99.7562,99.8906,0.00167609,0.0480206,20.9334,114.715,-0.0123848,0.0,0.0
455,113.5,56.494,60.4646,169.258,99.7195,99.8057,0.00167553,0.0479506,20.9333,114.685,-0.00794321,0.0,0.0
462,115.25,56.9014,60.476,167.528,99.7354,99.9325,0.00164229,0.0480261,20.9333,114.655,-0.0181578,0.0,0.0
469,117,56.3127,60.2301,169.744,99.7515,99.848,0.001629,0.0479667,20.9333,114.655,-0.0088848,0.0,0.0
476,118.75,56.931,60.0567,175.267,99.7469,99.8385,0.00169861,0.0480822,20.933,114.595,-0.00844253,0.0,0.0
483,120.5,56.1453,59.9822,168.288,99.7613,99.8359,0.00180104,0.0481752,20.9327,114.635,-0.00687717,0.0,0.0
490,122.25,57.0514,60.5115,167.034,99.7404,99.8199,0.0018782,0.0483393,20.9326,114.625,-0.00733089,0.0,0.0
497,124,56.5735,60.1237,166.01,99.7415,99.7846,0.00194771,0.0485049,20.9325,114.625,-0.00397431,0.0,0.0
504,125.75,56.8712,60.0917,171.099,99.7505,99.7992,0.00204006,0.0485554,20.9325,114.595,-0.00449535,0.0,0.0
511,127.5,56.2954,59.8991,168.139,99.7555,99.7984,0.00207851,0.0486318,20.9325,114.585,-0.00395183,0.0,0.0
518,129.25,56.2217,60.3331,167.423,99.7418,99.8411,0.00207632,0.0484463,20.9325,114.595,-0.00914436,0.0,0.0
525,131,56.7023,60.3136,169.653,99.7397,99.8462,0.00207905,0.0484556,20.9325,114.565,-0.00981991,0.0,0.0
532,132.75,56.7179,60.2631,167.189,99.749,99.832,0.00212708,0.0483911,20.9325,114.615,-0.00764802,0.0,0.0
539,134.5,56.8592,59.841,169.098,99.7706,99.8687,0.00222761,0.0485395,20.9326,114.575,-0.00903406,0.0,0.0
546,136.25,56.3998,60.1578,168.075,99.7742,99.8234,0.00234251,0.0486396,20.9326,114.545,-0.00453155,0.0,0.0
553,138,56.694,60.2949,168.194,99.7346,99.8165,0.00242712,0.0487706,20.9326,114.565,-0.00754377,0.0,0.0
560,139.75,56.8165,60.0567,163.485,99.7379,99.8372,0.00236735,0.0488058,20.9326,114.515,-0.00915205,0.0,0.0
567,141.5,56.7324,60.4486,167.96,99.7559,99.8195,0.00224009,0.0487909,20.9326,114.535,-0.00586556,0.0,0.0
574,143.25,56.8753,59.9816,169.128,99.7602,99.8346,0.00216665,0.048731,20.9326,114.485,-0.00685852,0.0,0.0
581,145,56.6356,60.2546,159.091,99.7573,99.8527,0.00216219,0.0486291,20.9326,114.525,-0.00879152,0.0,0.0
587,146.5,56.7494,59.8877,164.717,99.7764,99.7992,0.00214557,0.0485681,20.9326,114.505,-0.00210867,0.0,0.0