File: 01_Data/PEVA/Cone/PEVA_Cone_HF50Scan_240820_R1.csv
Names,Time,Stack TC,Smoke TC,Exh Press,Smoke Comp,Smoke Meas,CO Meter,CO2 Meter,O2 Meter,Sample Mass,Ext Coeff,Start Test,Flame Verif
Chan Gain,,500,500,1,1,1,1,1,1,1,1,1.0,1.0
Offset,,0,0,0.143687,0,0,0,0,0,0,0,0.0,0.0
Gain,,1,1,25.011,11.7833,14.1275,1,1,1,1.00092,1.04852,1.0,1.0
Units,sec,C,C,Pa,%,%,%,%,%,g,/m,,
Baseline,,55.6956,59.0859,168.112,101.091,101.203,-0.000499237,0.042842,20.9337,-448.427,-0.0101949,,
7,1.5,54.7478,58.2816,169.249,100.55,100.746,-0.000682969,0.0510096,20.9291,141.61,-0.0178859,0.0,0.0
14,3.25,54.6444,57.424,167.326,100.475,100.358,-0.000660504,0.0517833,20.9282,141.55,0.0107562,0.0,0.0
21,5,54.4838,57.8632,163.477,100.442,98.3299,-0.000699523,0.0516919,20.9265,141.47,0.195464,0.0,0.0
28,6.75,55.0783,58.7402,122.721,100.356,42.8895,-0.000722959,0.0513034,20.9259,140.739,7.81873,0.0,1.0
35,8.5,59.2102,64.7533,128.293,100.331,31.9412,-0.000708504,0.0506033,20.9266,139.768,10.5272,0.0,1.0
42,10.25,64.5867,73.0453,146.683,100.241,24.6248,-0.000666841,0.0501368,20.927,139.178,12.9116,0.0,1.0
49,12,66.3439,76.247,147.716,100.17,27.6583,-0.00053504,0.0502719,20.9284,138.767,11.8367,0.0,1.0
56,13.75,68.5302,78.8646,159.3,100.083,48.5327,0.00017857,0.0659304,20.9287,138.587,6.65678,0.0,0.0
63,15.5,68.5283,78.8214,158.062,100.105,73.7534,0.00526286,0.187696,20.9183,138.557,2.80977,0.0,0.0
70,17.25,68.3776,78.6335,161.541,100.149,85.5113,0.021825,0.407694,20.8287,138.437,1.45332,0.0,0.0
77,19,68.0389,77.6761,161.911,100.179,89.8413,0.0456012,0.554204,20.4853,138.347,1.00178,0.0,0.0
84,20.75,67.1226,77.0496,166.46,100.207,95.6922,0.06181,0.575152,20.2122,138.387,0.424029,0.0,0.0
91,22.5,66.307,75.7799,166.632,100.234,98.8339,0.0632067,0.514463,20.1019,138.317,0.129356,0.0,0.0
98,24.25,65.6985,74.4867,167.9,100.304,99.4651,0.0530841,0.429582,20.1356,138.337,0.0772372,0.0,0.0
105,26,64.6794,72.9304,169.374,100.332,100.139,0.0413771,0.341525,20.2618,138.367,0.0176728,0.0,0.0
112,27.75,63.0585,71.2506,166.065,100.328,100.365,0.0296486,0.269437,20.4186,138.387,-0.00345494,0.0,0.0
119,29.5,62.156,69.8759,165.276,100.374,100.381,0.0210403,0.207004,20.5452,138.367,-0.000625533,0.0,0.0
126,31.25,62.0345,69.0053,166.822,100.405,100.443,0.0142462,0.161199,20.6457,138.277,-0.00351911,0.0,0.0
133,33,61.3752,68.1906,169.069,100.471,100.524,0.00974818,0.125101,20.7175,138.287,-0.00479977,0.0,0.0
140,34.75,61.0485,67.5544,171.3,100.46,100.551,0.00632035,0.0977954,20.7853,138.337,-0.00834376,0.0,0.0
147,36.5,59.9064,66.7086,163.049,100.447,100.556,0.00414757,0.0791592,20.8362,138.257,-0.00996974,0.0,0.0
154,38.25,59.6151,65.7746,163.044,100.497,100.562,0.00258873,0.0674019,20.8704,138.267,-0.00601258,0.0,0.0
161,40,59.7414,65.0607,163.997,100.514,100.592,0.00155809,0.0597915,20.8933,138.237,-0.00715313,0.0,0.0
168,41.75,59.3668,65.078,166.378,100.511,100.602,0.000978533,0.055198,20.9084,138.267,-0.00836187,0.0,0.0
175,43.5,58.4661,64.2225,164.865,100.53,100.583,0.000651617,0.0525701,20.9173,138.267,-0.00477234,0.0,0.0
182,45.25,59.0364,64.1575,163.821,100.523,100.591,0.000431352,0.050679,20.9229,138.237,-0.00621885,0.0,0.0
189,47,58.8392,63.6621,165.494,100.561,100.622,0.000321023,0.0494705,20.9266,138.197,-0.00556331,0.0,0.0
196,48.75,58.1359,63.0459,168.113,100.574,100.66,0.000272329,0.0487338,20.9286,138.207,-0.00785268,0.0,0.0
203,50.5,58.2206,63.0913,166.948,100.561,100.602,0.000327171,0.0483383,20.9294,138.167,-0.00382239,0.0,0.0
210,52.25,58.0121,61.9492,164.79,100.522,100.648,0.000502669,0.0480816,20.9294,138.157,-0.0115521,0.0,0.0
217,54,58.1469,62.043,169.906,100.551,100.693,0.000637414,0.0479708,20.9294,138.117,-0.0130172,0.0,0.0
224,55.75,57.952,61.6931,167.389,100.579,100.665,0.00067656,0.0478046,20.9295,138.177,-0.00782579,0.0,0.0
231,57.5,57.2805,61.7765,163.531,100.564,100.665,0.000665141,0.0477212,20.9322,138.147,-0.00927277,0.0,0.0
238,59.25,57.4226,61.3934,165.7,100.547,100.596,0.000642553,0.0477399,20.9342,138.167,-0.00451345,0.0,0.0
245,61,56.9936,61.6017,166.904,100.554,100.696,0.000663949,0.0478649,20.9356,138.197,-0.0130359,0.0,0.0
252,62.75,56.8024,60.7831,168.021,100.543,100.592,0.000751782,0.0479815,20.9363,138.207,-0.00448164,0.0,0.0
259,64.5,57.3471,60.8549,165.717,100.531,100.627,0.000857226,0.0479772,20.9367,138.197,-0.00883871,0.0,0.0
266,66.25,57.0247,61.255,164.885,100.526,100.615,0.000971457,0.047913,20.9356,138.197,-0.00815665,0.0,0.0
273,68,57.1928,60.9262,165.005,100.479,100.533,0.00105744,0.04781,20.9351,138.087,-0.00491056,0.0,0.0
280,69.75,57.1741,60.837,170.928,100.472,100.524,0.00108676,0.047871,20.9349,138.097,-0.00474053,0.0,0.0
287,71.5,56.8402,60.7488,167.917,100.475,100.568,0.00110151,0.0478186,20.9348,138.067,-0.00842716,0.0,0.0
294,73.25,56.8171,60.7423,167.2,100.453,100.533,0.00115579,0.0479595,20.9347,138.077,-0.00724092,0.0,0.0
301,75,57.422,60.5276,167.203,100.421,100.497,0.00133999,0.0480793,20.9347,138.087,-0.00693039,0.0,0.0
308,76.75,56.8237,60.7729,167.346,100.414,100.474,0.00150511,0.0481715,20.9347,138.067,-0.0054909,0.0,0.0
315,78.5,56.8693,59.8954,167.3,100.421,100.457,0.00161699,0.048277,20.9347,138.077,-0.00326629,0.0,0.0
322,80.25,56.6776,60.2117,168.658,100.415,100.463,0.00162599,0.0482152,20.9342,137.977,-0.00434014,0.0,0.0
329,82,56.4029,60.0835,169.39,100.366,100.434,0.00150183,0.0483554,20.9337,137.997,-0.00624737,0.0,0.0
336,83.75,56.1795,59.8414,164.311,100.332,100.398,0.00142132,0.0483313,20.9334,137.997,-0.00598954,0.0,0.0
343,85.5,56.5275,60.2122,165.305,100.333,100.389,0.00146914,0.0484523,20.9332,137.977,-0.00512668,0.0,0.0
350,87.25,56.9317,59.8286,170.292,100.326,100.38,0.00158123,0.0484109,20.9324,138.007,-0.00496926,0.0,0.0
357,89,56.5512,59.9627,167.564,100.296,100.368,0.0016192,0.048365,20.9315,138.007,-0.00663304,0.0,0.0
364,90.75,57.0464,59.5872,166.359,100.3,100.349,0.00156644,0.0483422,20.9321,138.037,-0.00441966,0.0,0.0
371,92.5,56.1711,60.0778,166.651,100.3,100.328,0.00153042,0.0483676,20.9325,137.947,-0.00252268,0.0,0.0
378,94.25,56.3624,59.333,162.406,100.263,100.315,0.00168889,0.0483572,20.9314,137.977,-0.00473395,0.0,0.0
385,96,56.1225,59.5894,164.37,100.248,100.333,0.00189021,0.0484317,20.9306,137.967,-0.00774075,0.0,0.0
392,97.75,56.2872,60.2684,161.906,100.252,100.318,0.00194098,0.0486442,20.9303,137.937,-0.00607292,0.0,0.0
399,99.5,56.6261,60.0794,165.524,100.195,100.248,0.0018525,0.0486298,20.9301,137.937,-0.00491386,0.0,0.0
406,101.25,56.5174,60.0416,171.004,100.199,100.258,0.00170458,0.0486176,20.9312,137.927,-0.00541466,0.0,0.0
413,103,55.9562,59.5768,169.585,100.213,100.249,0.00155352,0.0484816,20.9315,137.887,-0.00331016,0.0,0.0
420,104.75,56.4668,59.9101,168.31,100.186,100.248,0.00137257,0.0485039,20.9315,137.917,-0.00569332,0.0,0.0
427,106.5,56.241,59.589,164.755,100.176,100.195,0.00128688,0.0484344,20.9315,137.826,-0.00179777,0.0,0.0
434,108.25,56.5084,59.6724,165.454,100.127,100.216,0.00136319,0.0484267,20.9315,137.897,-0.00818848,0.0,0.0
441,110,55.7737,59.7208,169.029,100.124,100.129,0.00147665,0.0483468,20.9315,137.826,-0.000463252,0.0,0.0
448,111.75,55.7084,59.9426,164.555,100.119,100.151,0.0015795,0.0483694,20.9315,137.856,-0.00297838,0.0,0.0
455,113.5,56.445,59.8479,167.655,100.119,100.168,0.00166325,0.0482095,20.9312,137.806,-0.00452168,0.0,0.0
462,115.25,56.2092,59.8425,173.488,100.09,100.131,0.00175383,0.0482223,20.9309,137.776,-0.00378674,0.0,0.0
469,117,56.1436,59.6781,169.909,100.094,100.155,0.00186337,0.0483501,20.9307,137.726,-0.00557428,0.0,0.0
476,118.75,56.2116,59.6633,166.869,100.074,100.152,0.00195113,0.0484013,20.9306,137.736,-0.00718002,0.0,0.0
483,120.5,56.322,60.048,166.018,100.105,100.131,0.00198368,0.0483579,20.9306,137.746,-0.00237243,0.0,0.0
490,122.25,55.6268,60.0716,169.045,100.092,100.157,0.00196859,0.0482629,20.9306,137.746,-0.00596431,0.0,0.0
497,124,56.2251,59.1256,163.173,100.096,100.154,0.00190694,0.0483481,20.9306,137.726,-0.00529672,0.0,0.0
504,125.75,56.2543,59.5482,165.82,100.149,100.216,0.00189929,0.0483692,20.9315,137.706,-0.00616728,0.0,0.0
511,127.5,56.1752,59.6646,163.498,100.162,100.261,0.00202429,0.0485421,20.9319,137.706,-0.00906589,0.0,0.0
518,129.25,56.1531,59.5689,170.511,100.193,100.251,0.00218207,0.0486085,20.9316,137.666,-0.00524406,0.0,0.0
525,131,56.2183,59.6924,166.535,100.21,100.292,0.00220424,0.0486101,20.9315,137.646,-0.00748232,0.0,0.0
532,132.75,55.9713,58.7912,171.108,100.265,100.324,0.00220311,0.0485701,20.9315,137.596,-0.00535925,0.0,0.0
539,134.5,56.2134,59.533,168.394,100.267,100.311,0.00231501,0.0485286,20.9315,137.626,-0.00404835,0.0,0.0
546,136.25,55.8736,59.5097,165.391,100.313,100.355,0.00244053,0.0488006,20.9315,137.596,-0.00385201,0.0,0.0
553,138,56.1211,59.5086,165.142,100.338,100.381,0.00243185,0.0489595,20.9314,137.606,-0.00396005,0.0,0.0
560,139.75,56.2562,60.3083,170.606,100.35,100.418,0.00241013,0.0488955,20.9314,137.596,-0.00623037,0.0,0.0
567,141.5,56.5819,60.166,164.294,100.371,100.442,0.00243097,0.0487533,20.9314,137.566,-0.00646407,0.0,0.0
574,143.25,56.3652,59.5867,167.894,100.4,100.462,0.00236028,0.0487965,20.9314,137.556,-0.00567686,0.0,0.0
581,145,56.6627,59.8292,166.938,100.42,100.474,0.0021567,0.0488566,20.9325,137.546,-0.00486559,0.0,0.0
583,145.5,56.076,59.7579,163.634,100.42,100.505,0.00211196,0.0488737,20.9328,137.516,-0.00781207,0.0,0.0