File: 01_Data/PEVA/Cone/PEVA_Cone_HF50Scalar_240820_R3.csv
LABORATORY,FSRI
TEST IDENT,PEVA_HF50_R3
OPERATOR,Dow
MATERIAL,polyethylene vinyl acetate shower curtain
ORIENTATION,Horizontal
HEAT FLUX,50
SURF AREA,0.01
C FACTOR,0.0397271
SPEC HOLDER DIFF,-566
SPECIMEN MASS,3.14
SCAN TIME,0.25
O2 DELAY TIME,11
CO DELAY TIME,11
CO2 DELAY TIME,8
FLOW FACTOR,1
SCAN COUNT,587
TIME TO IGN,6.25
END OF TEST SCAN,107
END OF TEST TIME,26.75
TEST STATUS,1
PRE TEST CMT,Dimensions: 102 x 101 x 0.29 mm; with calcium silicate substrate; secured to substrate by a staple in each corner