File: 01_Data/PEVA/Cone/PEVA_Cone_HF25Scan_240820_R1.csv
Names,Time,Stack TC,Smoke TC,Exh Press,Smoke Comp,Smoke Meas,CO Meter,CO2 Meter,O2 Meter,Sample Mass,Ext Coeff,Start Test,Flame Verif
Chan Gain,,500,500,1,1,1,1,1,1,1,1,1.0,1.0
Offset,,0,0,0.143687,0,0,0,0,0,0,0,0.0,0.0
Gain,,1,1,25.011,11.7176,14.1531,1,1,1,1.00092,1.04852,1.0,1.0
Units,sec,C,C,Pa,%,%,%,%,%,g,/m,,
Baseline,,44.0085,46.1634,174.982,99.1987,99.9398,-0.000345495,0.0430369,20.9379,-446.898,-0.0684583,,
8,1.75,43.3137,46.278,176.049,99.1403,99.8179,-0.000756763,0.0515626,20.9296,130.36,-0.0626473,0.0,0.0
16,3.75,44.0251,45.521,173.282,99.175,99.8127,-0.00066137,0.0518484,20.9301,130.25,-0.0589521,0.0,0.0
24,5.75,43.6314,45.996,174.903,99.1521,99.7932,-0.000638919,0.0520188,20.9303,130.24,-0.0592837,0.0,0.0
32,7.75,43.7065,45.7198,175.226,99.1721,99.6766,-0.000676879,0.0511323,20.9304,130.24,-0.0466714,0.0,0.0
40,9.75,43.8596,45.6491,177.139,99.1571,99.5134,-0.000748267,0.0495349,20.9308,130.25,-0.0329881,0.0,0.0
48,11.75,43.761,45.8138,179.36,99.1746,99.0365,-0.000722847,0.0478178,20.9318,130.219,0.012816,0.0,0.0
56,13.75,43.9741,46.2652,168.599,99.1886,89.9364,-0.000631268,0.0476316,20.9332,130.089,0.900617,0.0,1.0
64,15.75,44.1891,46.7896,150.63,99.2168,42.3925,-0.000517229,0.0482269,20.9338,129.339,7.82098,0.0,1.0
72,17.75,47.5291,51.4199,165.296,99.2243,54.8248,-0.000488974,0.0478687,20.934,128.738,5.45633,0.0,1.0
80,19.75,50.2337,55.8712,157.441,99.235,55.1626,-0.000470495,0.0476922,20.9342,128.298,5.40083,0.0,1.0
88,21.75,52.5836,58.138,160.949,99.2497,44.8013,-0.000271701,0.0553405,20.935,128.007,7.31572,0.0,1.0
96,23.75,53.3208,59.5831,161.057,99.2594,44.6453,0.00311649,0.134298,20.9308,127.727,7.34868,0.0,0.0
104,25.75,53.8522,60.8237,165.937,99.2797,54.9514,0.0143172,0.290919,20.8017,127.557,5.44026,0.0,0.0
112,27.75,54.0589,61.0125,169.967,99.259,66.6141,0.0282369,0.388018,20.5398,127.397,3.66812,0.0,0.0
120,29.75,54.5648,61.7399,169.061,99.2926,78.5553,0.0390423,0.395655,20.4031,127.287,2.15468,0.0,0.0
128,31.75,53.8899,61.2135,167.349,99.269,85.2518,0.0408899,0.365864,20.3598,127.217,1.40008,0.0,0.0
136,33.75,53.9192,60.5215,174.499,99.2358,91.3285,0.0370893,0.325499,20.4032,127.207,0.76372,0.0,0.0
144,35.75,53.1831,59.7881,174.993,99.1592,94.2902,0.031872,0.290992,20.4612,127.147,0.463096,0.0,0.0
152,37.75,52.7546,58.8115,171.758,99.2189,95.0331,0.0256314,0.254719,20.5157,127.137,0.396451,0.0,0.0
160,39.75,52.1547,57.9911,171.895,99.3184,97.3792,0.019581,0.218878,20.5828,127.157,0.181351,0.0,0.0
168,41.75,51.2443,57.0917,179.007,99.3741,98.4975,0.0146846,0.18435,20.6439,127.107,0.0814993,0.0,0.0
176,43.75,50.7284,55.937,175.021,99.377,99.3384,0.0107304,0.154675,20.6909,127.157,0.00357147,0.0,0.0
184,45.75,49.7576,55.1878,175.933,99.4117,99.8986,0.00749765,0.126202,20.7417,127.127,-0.0449414,0.0,0.0
192,47.75,49.5457,54.0465,173.674,99.4281,100.036,0.00532341,0.104806,20.7988,127.137,-0.0560565,0.0,0.0
200,49.75,48.3376,52.5314,169.57,99.4718,100.125,0.00387193,0.0881289,20.838,127.127,-0.0601588,0.0,0.0
208,51.75,48.3218,52.1017,174.747,99.4861,100.143,0.00269361,0.0755081,20.8665,127.107,-0.0605429,0.0,0.0
216,53.75,47.4796,51.4619,174.081,99.4961,100.18,0.00176122,0.0660171,20.8883,127.107,-0.0629879,0.0,0.0
224,55.75,47.591,51.2585,174.584,99.5193,100.209,0.0010406,0.0588566,20.905,127.117,-0.0635354,0.0,0.0
232,57.75,46.986,50.5452,182.406,99.5386,100.23,0.000517383,0.0541762,20.9176,127.127,-0.0636541,0.0,0.0
240,59.75,46.4887,50.0101,169.123,99.5808,100.244,0.000248185,0.0510821,20.9251,127.097,-0.0610236,0.0,0.0
248,61.75,46.2321,49.7512,173.106,99.5955,100.263,0.000106019,0.0490286,20.9302,127.067,-0.0614529,0.0,0.0
256,63.75,46.1236,49.319,174.544,99.6012,100.269,3.36476e-05,0.0469106,20.9325,127.067,-0.0614789,0.0,0.0
264,65.75,45.5961,48.9459,170.489,99.6127,100.296,-3.75122e-05,0.0455892,20.936,127.057,-0.0629183,0.0,0.0
272,67.75,45.972,48.9376,169.141,99.6445,100.32,-0.000152421,0.044485,20.9379,127.087,-0.0621583,0.0,0.0
280,69.75,45.8204,48.4924,176.934,99.647,100.298,-0.000242523,0.0438002,20.9388,127.057,-0.059868,0.0,0.0
288,71.75,45.3649,48.567,173.798,99.6699,100.344,-0.000326571,0.0431979,20.9404,127.077,-0.0619921,0.0,0.0
296,73.75,45.3952,48.4213,174.07,99.6763,100.385,-0.000331079,0.0429034,20.9412,127.067,-0.0651596,0.0,0.0
304,75.75,45.3615,48.0285,172.522,99.6684,100.38,-0.000261435,0.0427024,20.9415,127.057,-0.06545,0.0,0.0
312,77.75,45.203,47.5777,173.527,99.6674,100.386,-0.000212426,0.0424902,20.9417,127.057,-0.0660629,0.0,0.0
320,79.75,44.9617,47.5097,171.789,99.7418,100.432,-0.000258607,0.0421739,20.9417,127.017,-0.0633958,0.0,0.0
328,81.75,44.9355,47.6702,171.966,99.731,100.448,-0.000331234,0.0420664,20.9417,127.027,-0.0659276,0.0,0.0
336,83.75,44.8514,47.3694,175.225,99.7557,100.458,-0.000368053,0.0420029,20.9418,127.007,-0.0644827,0.0,0.0
344,85.75,45.1979,47.0884,175.067,99.77,100.474,-0.000319229,0.0418099,20.9418,127.057,-0.0646274,0.0,0.0
352,87.75,44.228,46.5666,176.238,99.7968,100.502,-0.000319581,0.0418646,20.9418,127.047,-0.0647245,0.0,0.0
360,89.75,44.9336,47.547,174.07,99.8068,100.525,-0.00027789,0.0418642,20.942,127.027,-0.0659365,0.0,0.0
368,91.75,44.4982,46.645,173.855,99.8283,100.538,-0.000132554,0.0420566,20.943,127.027,-0.0651447,0.0,0.0
376,93.75,45.1154,46.9744,175.398,99.8419,100.554,-0.000144693,0.0420234,20.9434,126.977,-0.0653948,0.0,0.0
384,95.75,44.4645,47.2595,174.016,99.8905,100.564,-0.000162529,0.0418029,20.9436,126.977,-0.0618238,0.0,0.0
392,97.75,44.6376,46.8009,171.262,99.8716,100.604,-0.000156068,0.0417238,20.9437,127.027,-0.0671634,0.0,0.0
400,99.75,45.0296,46.6975,171.658,99.908,100.636,-0.000303773,0.0418268,20.9444,127.017,-0.0668056,0.0,0.0
408,101.75,44.1343,46.6477,167.045,99.9284,100.631,-0.000517131,0.041847,20.9453,126.997,-0.0644159,0.0,0.0
416,103.75,44.4731,47.1952,175.305,99.9552,100.646,-0.0005978,0.0418563,20.9458,127.017,-0.0633687,0.0,0.0
424,105.75,44.2603,46.8994,172.417,99.9645,100.646,-0.000567681,0.0417827,20.946,127.017,-0.062474,0.0,0.0
432,107.75,44.8117,47.3009,177.956,99.976,100.69,-0.000509682,0.0418168,20.9455,127.017,-0.0654462,0.0,0.0
440,109.75,44.8417,46.5446,170.809,100.018,100.712,-0.000388619,0.0418072,20.9453,127.017,-0.0635763,0.0,0.0
448,111.75,44.0793,46.4167,169.057,100.014,100.727,-0.000288193,0.0417364,20.9453,126.997,-0.0653584,0.0,0.0
456,113.75,44.2228,46.5461,176.961,100.045,100.758,-0.000153696,0.0417275,20.9449,126.977,-0.0653308,0.0,0.0
464,115.75,44.189,46.8071,173.636,100.048,100.803,-2.90076e-05,0.0417857,20.9447,126.946,-0.0691346,0.0,0.0
472,117.75,44.7876,46.609,177.16,100.035,100.791,-6.7021e-06,0.0416963,20.9437,126.946,-0.0692141,0.0,0.0
480,119.75,44.4028,46.0381,172.371,100.06,100.785,-5.89182e-05,0.0417261,20.9431,126.966,-0.0663616,0.0,0.0
488,121.75,44.2912,46.2242,173.343,100.088,100.802,-9.41706e-05,0.0417143,20.9432,126.936,-0.0654009,0.0,0.0
496,123.75,44.0857,46.1984,174.776,100.094,100.834,-0.000117019,0.0415201,20.9429,126.977,-0.0677317,0.0,0.0
504,125.75,44.37,46.6765,172.893,100.095,100.845,-0.000186466,0.0413825,20.9427,126.946,-0.0686435,0.0,0.0
512,127.75,44.3473,46.3927,174.413,100.12,100.847,-0.000262212,0.0412766,20.9427,126.926,-0.0665477,0.0,0.0
520,129.75,44.393,46.0191,175.171,100.133,100.838,-0.000239524,0.0413134,20.9427,126.946,-0.0645711,0.0,0.0
528,131.75,44.0404,46.5631,172.658,100.16,100.851,-0.000174665,0.0415306,20.944,126.936,-0.0632964,0.0,0.0
536,133.75,44.1331,46.6025,176.164,100.143,100.847,-0.000175953,0.0416757,20.9445,126.916,-0.0644132,0.0,0.0
544,135.75,44.0117,46.3431,171.308,100.141,100.836,-0.000233279,0.0417988,20.9448,126.916,-0.0636254,0.0,0.0
552,137.75,44.0435,46.7666,177.721,100.145,100.89,-0.000310255,0.0418218,20.9451,126.916,-0.0681542,0.0,0.0
560,139.75,44.1437,46.56,171.505,100.136,100.87,-0.000321611,0.0417836,20.9453,126.916,-0.0671568,0.0,0.0
568,141.75,44.293,46.1138,176.274,100.155,100.858,-0.000248175,0.0416054,20.944,126.906,-0.0642807,0.0,0.0
576,143.75,44.2901,46.416,175.521,100.176,100.863,-0.000242478,0.0415469,20.9441,126.906,-0.0628753,0.0,0.0
584,145.75,44.4701,46.1342,174.115,100.193,100.885,-0.000307442,0.0417275,20.9447,126.896,-0.0633478,0.0,0.0
592,147.75,43.8807,46.5237,169.764,100.159,100.882,-0.000395583,0.0417591,20.9451,126.906,-0.0661259,0.0,0.0
600,149.75,44.1264,46.3817,174.313,100.182,100.967,-0.000432542,0.0417454,20.9449,126.906,-0.0718111,0.0,0.0
608,151.75,44.202,45.9211,172.546,100.176,100.884,-0.000375413,0.0417117,20.9447,126.876,-0.0647395,0.0,0.0
616,153.75,43.9597,45.7081,169.001,100.192,100.889,-0.000248762,0.0415964,20.9446,126.876,-0.0637999,0.0,0.0
624,155.75,44.4113,46.1756,175.248,100.2,100.917,-8.60482e-05,0.041568,20.9446,126.876,-0.0655709,0.0,0.0
632,157.75,44.3957,46.1616,173.548,100.194,100.907,-5.28184e-05,0.0415884,20.9446,126.856,-0.0651519,0.0,0.0
640,159.75,43.7323,46.1858,179.996,100.216,100.909,-0.000203976,0.0416468,20.9446,126.896,-0.0633858,0.0,0.0
648,161.75,43.9475,46.2669,175.107,100.205,100.994,-0.00049171,0.0414115,20.9447,126.876,-0.0721161,0.0,0.0
656,163.75,43.6634,46.3342,173.952,100.217,100.888,-0.000628234,0.0413969,20.9447,126.866,-0.0613194,0.0,0.0
664,165.75,44.1036,46.4395,174.381,100.203,100.893,-0.000575313,0.0414693,20.9448,126.886,-0.0631043,0.0,0.0
666,166.25,44.1843,46.4819,172.78,100.197,100.954,-0.000555856,0.0415216,20.9448,126.866,-0.0692185,0.0,0.0