File: 01_Data/PEVA/Cone/PEVA_Cone_HF75Scan_240820_R2.csv
Names,Time,Stack TC,Smoke TC,Exh Press,Smoke Comp,Smoke Meas,CO Meter,CO2 Meter,O2 Meter,Sample Mass,Ext Coeff,Start Test,Flame Verif
Chan Gain,,500,500,1,1,1,1,1,1,1,1,1.0,1.0
Offset,,0,0,0.143687,0,0,0,0,0,0,0,0.0,0.0
Gain,,1,1,25.011,11.7833,14.1275,1,1,1,1.00092,1.04852,1.0,1.0
Units,sec,C,C,Pa,%,%,%,%,%,g,/m,,
Baseline,,63.1637,67.1049,164.624,100.958,101.019,-0.000838934,0.0433119,20.9408,-449.135,-0.00563275,,
6,1.25,62.4263,66.0171,165.54,100.584,100.64,-0.000592251,0.0565875,20.9324,123.774,-0.00514588,0.0,0.0
12,2.75,62.289,66.1566,168.507,100.562,100.042,-0.000711635,0.0591269,20.9282,123.553,0.0476608,0.0,0.0
18,4.25,62.2522,66.2903,137.137,100.574,60.0691,-0.000778516,0.060725,20.9249,123.083,4.74038,0.0,1.0
24,5.75,64.1071,69.5965,127.053,100.565,21.7914,-0.000737608,0.0604769,20.9223,122.002,14.0656,0.0,1.0
30,7.25,69.2492,78.0252,141.549,100.587,20.5096,-0.000546328,0.0586599,20.9209,121.361,14.6252,0.0,1.0
36,8.75,73.2985,83.7307,145.537,100.574,19.1188,-0.000378947,0.0559762,20.9212,120.951,15.2699,0.0,1.0
42,10.25,75.3333,86.6237,151.388,100.566,36.8372,-0.000290481,0.0537647,20.923,120.691,9.23707,0.0,0.0
48,11.75,75.5191,87.8591,149.876,100.56,71.0174,0.00023153,0.0688935,20.9246,120.641,3.19913,0.0,0.0
54,13.25,76.0457,87.3578,158.011,100.564,86.4335,0.00443846,0.166234,20.9254,120.631,1.39269,0.0,0.0
60,14.75,75.7692,86.7123,157.953,100.564,95.0071,0.0174374,0.383561,20.8795,120.611,0.522762,0.0,0.0
66,16.25,75.053,85.3013,162.162,100.552,98.6084,0.0375161,0.563323,20.6996,120.581,0.179553,0.0,0.0
72,17.75,74.2761,84.3325,157.051,100.569,99.6358,0.0596645,0.63131,20.3223,120.591,0.0857649,0.0,0.0
78,19.25,73.3295,83.4286,160.677,100.589,100.137,0.0697775,0.601045,20.094,120.561,0.0414043,0.0,0.0
84,20.75,72.4813,82.0845,163.447,100.608,100.413,0.0663922,0.50565,20.0082,120.561,0.0178774,0.0,0.0
90,22.25,71.3652,80.2775,160.334,100.617,100.412,0.0548748,0.403049,20.0919,120.521,0.0187714,0.0,0.0
96,23.75,70.584,79.9391,160.863,100.595,100.556,0.0423526,0.311738,20.2416,120.491,0.00355941,0.0,0.0
102,25.25,70.3637,78.693,160.767,100.634,100.612,0.0306037,0.236866,20.3844,120.521,0.00197774,0.0,0.0
108,26.75,69.9294,77.643,158.808,100.652,100.637,0.0214931,0.17664,20.5163,120.531,0.00141428,0.0,0.0
114,28.25,69.3637,77.1843,165.648,100.666,100.728,0.0152092,0.135983,20.6322,120.541,-0.00565382,0.0,0.0
120,29.75,69.3961,76.1609,164.002,100.705,100.703,0.0112452,0.108429,20.7274,120.501,0.000210512,0.0,0.0
126,31.25,69.0094,76.6279,157.731,100.703,100.785,0.00885401,0.0915985,20.7904,120.461,-0.0074719,0.0,0.0
132,32.75,68.5704,75.6689,165.441,100.72,100.798,0.00750465,0.0811411,20.8302,120.431,-0.00710924,0.0,0.0
138,34.25,68.4991,75.2022,164.32,100.739,100.871,0.00682515,0.0750615,20.8587,120.36,-0.0120801,0.0,0.0
144,35.75,67.8674,74.9551,161.401,100.734,100.865,0.00654441,0.0717779,20.8768,120.38,-0.0119632,0.0,0.0
150,37.25,67.8137,74.611,161.333,100.761,100.874,0.00647612,0.069802,20.8883,120.38,-0.0103923,0.0,0.0
156,38.75,67.091,73.9725,159.149,100.743,100.874,0.00650057,0.0687679,20.8946,120.34,-0.0119281,0.0,0.0
162,40.25,67.4721,73.163,158.179,100.794,100.87,0.0066216,0.068312,20.8989,120.37,-0.00698031,0.0,0.0
168,41.75,67.3209,73.5356,161.034,100.775,100.865,0.00683428,0.0679303,20.9017,120.36,-0.00821426,0.0,0.0
174,43.25,66.8948,73.1214,156.513,100.785,100.881,0.00707465,0.0674263,20.9035,120.28,-0.00875695,0.0,0.0
180,44.75,66.6481,72.9565,166.669,100.768,100.874,0.00727035,0.0668712,20.905,120.22,-0.00963058,0.0,0.0
186,46.25,66.893,72.4366,160.425,100.794,100.914,0.00737908,0.0661079,20.9065,120.3,-0.0109889,0.0,0.0
192,47.75,66.3461,72.4583,163.474,100.767,100.842,0.00739477,0.0655664,20.908,120.24,-0.00685248,0.0,0.0
198,49.25,66.5664,71.8784,163.724,100.774,100.87,0.00740123,0.0652945,20.9091,120.2,-0.00881731,0.0,0.0
204,50.75,66.1945,71.6687,162.619,100.771,100.852,0.00748386,0.0652003,20.9097,120.21,-0.00732376,0.0,0.0
210,52.25,66.0758,71.3649,166.006,100.777,100.803,0.00762827,0.0650322,20.9101,120.18,-0.00239436,0.0,0.0
216,53.75,65.9781,71.3937,160.741,100.8,100.824,0.00780805,0.064465,20.9102,120.21,-0.00225398,0.0,0.0
222,55.25,65.7142,71.172,163.316,100.748,100.785,0.00791614,0.0637513,20.9103,120.23,-0.0033672,0.0,0.0
228,56.75,65.4859,70.7227,162.33,100.743,100.837,0.00793914,0.0629023,20.9104,120.18,-0.00854678,0.0,0.0
234,58.25,65.5425,70.5794,162.352,100.722,100.79,0.00786768,0.062271,20.9115,120.19,-0.0061969,0.0,0.0
240,59.75,65.297,70.646,162.734,100.707,100.845,0.00770455,0.0618993,20.9121,120.2,-0.0126434,0.0,0.0
246,61.25,65.7584,70.0863,164.863,100.707,100.764,0.00749458,0.0617616,20.9132,120.15,-0.0052479,0.0,0.0
252,62.75,65.1405,70.8145,164.741,100.69,100.756,0.0073467,0.0615785,20.9141,120.19,-0.00597912,0.0,0.0
258,64.25,65.1544,70.2246,160.442,100.638,100.718,0.00727207,0.0611801,20.9147,120.15,-0.00734406,0.0,0.0
264,65.75,64.612,69.7278,161.023,100.622,100.645,0.00722304,0.0606133,20.9147,120.14,-0.00209442,0.0,0.0
270,67.25,65.2043,69.9663,162.171,100.576,100.615,0.00715348,0.0604862,20.9147,120.09,-0.00351143,0.0,0.0
276,68.75,65.3499,70.1797,164.337,100.577,100.589,0.00709328,0.0603902,20.9155,120.12,-0.00112062,0.0,0.0
282,70.25,65.1845,69.9999,163.794,100.523,100.513,0.00703657,0.0603341,20.9162,120.07,0.000886967,0.0,0.0
288,71.75,65.0364,69.723,158.405,100.507,100.535,0.00694937,0.059957,20.9166,120.05,-0.00256709,0.0,0.0
294,73.25,65.275,69.8596,166.15,100.424,100.494,0.00680347,0.0595765,20.9168,120.05,-0.00642402,0.0,0.0
300,74.75,65.4502,69.7142,166.842,100.411,100.464,0.00661526,0.0591697,20.9182,120.02,-0.00492537,0.0,0.0
306,76.25,65.0371,69.7818,160.946,100.418,100.438,0.00642881,0.0587788,20.9192,119.98,-0.00182628,0.0,0.0
312,77.75,64.5718,69.5315,163.656,100.442,100.475,0.00626517,0.058423,20.9197,119.97,-0.00300799,0.0,0.0
318,79.25,64.9222,69.5917,161.195,100.444,100.519,0.00614492,0.0583015,20.9206,119.99,-0.00684151,0.0,0.0
324,80.75,64.6442,69.9325,160.36,100.464,100.509,0.00604518,0.05801,20.9215,119.99,-0.00412349,0.0,0.0
330,82.25,64.5757,69.5905,166.875,100.511,100.52,0.00594678,0.0575716,20.9219,119.98,-0.000791106,0.0,0.0
336,83.75,64.9945,69.4091,159.886,100.545,100.565,0.00575883,0.0571452,20.9222,119.95,-0.00184657,0.0,0.0
342,85.25,64.7566,69.0931,161.411,100.569,100.651,0.00552529,0.0567055,20.9224,120.01,-0.00747958,0.0,0.0
348,86.75,64.565,68.9919,167.771,100.558,100.588,0.0052412,0.0564527,20.9225,119.87,-0.0027848,0.0,0.0
354,88.25,64.9348,69.0266,163.411,100.57,100.642,0.00489847,0.0562431,20.9225,119.81,-0.00655294,0.0,0.0
360,89.75,64.7583,69.1914,163.55,100.626,100.699,0.00458521,0.0561761,20.9226,119.88,-0.00665718,0.0,0.0
366,91.25,64.4618,69.2373,161.607,100.655,100.707,0.00437653,0.0559281,20.9226,119.79,-0.00478276,0.0,0.0
372,92.75,64.5972,69.3662,160.26,100.674,100.744,0.00427403,0.0558413,20.9234,119.8,-0.00642018,0.0,0.0
378,94.25,65.1075,68.9616,163.161,100.726,100.806,0.0042541,0.0556504,20.9241,119.86,-0.00729194,0.0,0.0
384,95.75,64.7425,69.3115,163.992,100.747,100.816,0.00429042,0.0554918,20.9247,119.78,-0.00625944,0.0,0.0
390,97.25,64.7392,69.255,166.897,100.777,100.857,0.00429124,0.0551998,20.9259,119.72,-0.00727713,0.0,0.0
396,98.75,64.5589,69.1971,168.603,100.771,100.829,0.0041292,0.0549348,20.9265,119.78,-0.00531153,0.0,0.0
402,100.25,64.1797,69.1874,164.391,100.861,100.901,0.00387474,0.054581,20.9269,119.78,-0.00360302,0.0,0.0
408,101.75,65.1295,68.8107,164.6,100.873,100.933,0.00365848,0.0543061,20.9271,119.76,-0.0054355,0.0,0.0
414,103.25,64.3403,69.033,159.747,100.903,100.97,0.00350332,0.0542338,20.9272,119.8,-0.00609267,0.0,0.0
420,104.75,64.5409,69.0646,161.244,100.919,101.023,0.00340762,0.0542274,20.9272,119.77,-0.00951259,0.0,0.0
426,106.25,64.8862,68.811,165.897,100.968,101.056,0.00334079,0.0540176,20.9272,119.74,-0.00803978,0.0,0.0
432,107.75,64.6149,69.2884,156.307,100.982,101.048,0.00327187,0.0538169,20.9282,119.73,-0.00599009,0.0,0.0
438,109.25,64.9286,68.767,160.062,100.999,101.056,0.00317916,0.0537164,20.9287,119.77,-0.0051179,0.0,0.0
444,110.75,65.0843,69.6459,157.979,101.032,101.095,0.00299964,0.0535169,20.9282,119.72,-0.00574762,0.0,0.0
450,112.25,64.6157,69.5801,163.043,101.054,101.12,0.00280365,0.0533825,20.9279,119.68,-0.00605866,0.0,0.0
456,113.75,64.761,68.8474,163.543,101.064,101.156,0.0026624,0.0532829,20.9278,119.7,-0.00832401,0.0,0.0
462,115.25,64.3797,69.4372,166.892,101.096,101.189,0.00253536,0.0531727,20.9279,119.61,-0.00843046,0.0,0.0
468,116.75,64.4045,69.3653,163.693,101.142,101.245,0.00244826,0.0528528,20.9289,119.64,-0.00930406,0.0,0.0
474,118.25,64.8669,69.1969,163.176,101.148,101.233,0.00239216,0.0526879,20.9294,119.63,-0.00775556,0.0,0.0
480,119.75,64.5224,69.3918,164.508,101.216,101.273,0.00228903,0.0525326,20.9297,119.63,-0.00514807,0.0,0.0
486,121.25,64.3664,69.1232,158.002,101.216,101.295,0.00208284,0.0524855,20.9298,119.64,-0.00721678,0.0,0.0
492,122.75,64.8856,69.232,163.096,101.249,101.311,0.001887,0.0523266,20.9299,119.6,-0.00562749,0.0,0.0
498,124.25,64.6967,69.1498,163.304,101.277,101.329,0.00175987,0.0522925,20.9302,119.61,-0.00475534,0.0,0.0
504,125.75,64.4814,68.9457,165.764,101.323,101.347,0.00172834,0.0520623,20.9306,119.5,-0.00217392,0.0,0.0
510,127.25,64.7577,68.9812,164.582,101.306,101.357,0.00173924,0.0518645,20.9303,119.47,-0.00464783,0.0,0.0
516,128.75,64.8605,68.3579,163.589,101.333,101.426,0.00176626,0.0516801,20.9312,119.51,-0.00845679,0.0,0.0
522,130.25,64.4645,69.0362,158.94,101.332,101.408,0.00179778,0.051608,20.9317,119.46,-0.00684755,0.0,0.0
528,131.75,64.2944,68.8861,162.057,101.37,101.436,0.0017796,0.051731,20.932,119.46,-0.00596211,0.0,0.0
534,133.25,64.2617,68.7597,173.517,101.376,101.416,0.00173485,0.0515984,20.9321,119.44,-0.00360905,0.0,0.0
540,134.75,64.4881,69.0058,159.138,101.387,101.476,0.00173034,0.0514046,20.9322,119.4,-0.00810343,0.0,0.0
546,136.25,64.7353,69.343,162.232,101.365,101.435,0.00173722,0.0512258,20.9323,119.279,-0.0064125,0.0,0.0
552,137.75,64.5615,69.0746,160.58,101.402,101.467,0.00168365,0.0513074,20.9323,119.329,-0.00587928,0.0,0.0
558,139.25,64.2161,68.7649,164.291,101.413,101.525,0.00160422,0.0512837,20.9323,119.329,-0.0100976,0.0,0.0
562,140.25,64.8413,68.8577,157.586,101.418,101.462,0.00158496,0.0513285,20.9323,119.37,-0.00397541,0.0,0.0