File: 01_Data/PEVA/Cone/PEVA_Cone_HF50Scan_240820_R2.csv
Names,Time,Stack TC,Smoke TC,Exh Press,Smoke Comp,Smoke Meas,CO Meter,CO2 Meter,O2 Meter,Sample Mass,Ext Coeff,Start Test,Flame Verif
Chan Gain,,500,500,1,1,1,1,1,1,1,1,1.0,1.0
Offset,,0,0,0.143687,0,0,0,0,0,0,0,0.0,0.0
Gain,,1,1,25.011,11.7833,14.1275,1,1,1,1.00092,1.04852,1.0,1.0
Units,sec,C,C,Pa,%,%,%,%,%,g,/m,,
Baseline,,55.6562,58.5953,168.919,100.706,100.781,-0.000667269,0.0426095,20.9395,-448.537,-0.00688778,,
7,1.5,55.1121,58.9052,170.846,101.351,101.419,-0.000622803,0.0453189,20.9381,126.266,-0.00612833,0.0,0.0
14,3.25,55.1138,58.3066,171.637,101.36,101.277,-0.000693389,0.0452711,20.9379,126.236,0.00752171,0.0,0.0
21,5,54.636,58.4534,158.302,101.328,99.9195,-0.000709688,0.0451247,20.9378,126.146,0.128714,0.0,0.0
28,6.75,55.1756,58.6766,128.703,101.349,39.4741,-0.000733099,0.0449691,20.9378,125.425,8.67255,0.0,1.0
35,8.5,59.0721,64.44,141.104,101.344,32.2517,-0.000814559,0.0448859,20.9378,124.674,10.5307,0.0,1.0
42,10.25,63.5654,70.8664,148.273,101.337,29.4325,-0.000872115,0.0448603,20.9378,124.044,11.3714,0.0,1.0
49,12,65.2197,73.7825,153.813,101.292,34.597,-0.000871832,0.0451754,20.9378,123.744,9.88035,0.0,1.0
56,13.75,66.3212,75.4421,151.485,101.301,43.2858,-0.000516808,0.0624062,20.9371,123.453,7.82035,0.0,0.0
63,15.5,67.4075,76.5267,162.144,101.279,58.6269,0.00434236,0.168083,20.9354,123.383,5.02812,0.0,0.0
70,17.25,67.281,76.4129,161.116,101.255,77.0279,0.018083,0.353277,20.92,123.323,2.51526,0.0,0.0
77,19,67.3972,76.3433,162.944,101.252,91.9952,0.0369701,0.47228,20.6518,123.283,0.881831,0.0,0.0
84,20.75,66.4239,75.2214,163.8,101.191,99.1482,0.051806,0.487609,20.4001,123.263,0.187575,0.0,0.0
91,22.5,65.9413,73.6208,163.473,101.142,99.766,0.0543378,0.44703,20.2781,123.293,0.126027,0.0,0.0
98,24.25,65.1722,72.3324,167.326,101.121,100.743,0.0472874,0.389106,20.2682,123.303,0.0344367,0.0,0.0
105,26,63.9665,71.436,169.455,101.112,101.063,0.0375583,0.323766,20.3351,123.273,0.00445809,0.0,0.0
112,27.75,63.7954,70.2843,170.596,101.073,101.069,0.0282048,0.261767,20.4286,123.293,0.000408958,0.0,0.0
119,29.5,62.1711,69.0451,168.043,101.035,101.045,0.0200225,0.201844,20.5246,123.253,-0.000934752,0.0,0.0
126,31.25,61.726,68.4331,173.253,100.992,100.988,0.0135701,0.151203,20.6301,123.283,0.00039032,0.0,0.0
133,33,61.2363,67.1784,166.332,100.952,100.941,0.00876904,0.11491,20.7345,123.223,0.000962613,0.0,0.0
140,34.75,60.8217,66.4098,161.954,100.921,100.906,0.00571707,0.0900052,20.8004,123.233,0.00133426,0.0,0.0
147,36.5,59.9834,65.9145,166.542,100.857,100.88,0.00366732,0.0738048,20.8444,123.233,-0.00207797,0.0,0.0
154,38.25,59.5565,65.2661,167.731,100.783,100.764,0.00231919,0.0635427,20.8754,123.183,0.00175083,0.0,0.0
161,40,59.3106,64.3083,167.004,100.703,100.784,0.00130474,0.0570806,20.8965,123.183,-0.00745873,0.0,0.0
168,41.75,59.3318,64.328,164.133,100.683,100.707,0.000684988,0.0531783,20.9103,123.203,-0.00221341,0.0,0.0
175,43.5,58.5148,64.2225,162.799,100.594,100.659,0.000236885,0.0505031,20.9203,123.203,-0.00596595,0.0,0.0
182,45.25,58.6481,63.1314,165.008,100.549,100.585,2.35689e-05,0.0490357,20.9271,123.233,-0.003331,0.0,0.0
189,47,58.1956,62.7452,167.688,100.466,100.547,-4.40212e-05,0.0480795,20.9313,123.183,-0.00739728,0.0,0.0
196,48.75,58.0823,62.4975,167.19,100.43,100.433,-4.02903e-05,0.0475282,20.9336,123.153,-0.000304812,0.0,0.0
203,50.5,57.8298,62.4229,170.361,100.389,100.512,-4.15481e-05,0.0469789,20.9347,123.173,-0.0112101,0.0,0.0
210,52.25,58.4708,62.2359,166.44,100.403,100.447,-8.9148e-05,0.0466246,20.9352,123.163,-0.00403793,0.0,0.0
217,54,57.984,61.8811,171.731,100.484,100.524,-0.000133419,0.0464015,20.9355,123.153,-0.00362057,0.0,0.0
224,55.75,57.3707,61.7725,170.957,100.555,100.607,-0.000154594,0.0462909,20.9356,123.123,-0.00474272,0.0,0.0
231,57.5,57.6535,61.6522,169.221,100.623,100.662,-8.46944e-05,0.0461854,20.9357,123.123,-0.00357889,0.0,0.0
238,59.25,57.5203,61.4014,168.097,100.659,100.753,4.66965e-05,0.0461728,20.9357,123.113,-0.00863403,0.0,0.0
245,61,57.679,61.1904,164.253,100.718,100.751,0.000135907,0.0463029,20.9357,123.073,-0.00301677,0.0,0.0
252,62.75,57.426,61.3329,166.147,100.722,100.764,0.000215585,0.0463742,20.9357,123.093,-0.00379662,0.0,0.0
259,64.5,57.0569,60.872,163.852,100.753,100.773,0.000310904,0.0464302,20.9357,123.073,-0.00183944,0.0,0.0
266,66.25,56.8757,61.0005,164.629,100.735,100.774,0.000455114,0.0465079,20.9341,123.083,-0.00352624,0.0,0.0
273,68,57.1583,60.4781,165.508,100.692,100.756,0.000516956,0.046571,20.9334,123.093,-0.00580742,0.0,0.0
280,69.75,57.1312,60.6821,173.529,100.639,100.706,0.00051255,0.0466191,20.933,123.083,-0.00618264,0.0,0.0
287,71.5,56.7791,60.4347,159.938,100.599,100.631,0.000496592,0.0467565,20.9329,123.073,-0.00287254,0.0,0.0
294,73.25,56.6659,60.2574,169.466,100.562,100.604,0.000518558,0.0469321,20.9328,123.073,-0.00380923,0.0,0.0
301,75,56.6056,60.1493,168.173,100.474,100.54,0.000597022,0.0471239,20.9327,123.053,-0.00596321,0.0,0.0
308,76.75,56.6009,60.0695,167.503,100.453,100.501,0.000717298,0.0472577,20.9327,123.053,-0.00435494,0.0,0.0
315,78.5,56.3279,60.6919,167.827,100.377,100.458,0.000855234,0.0473561,20.9327,123.023,-0.00739728,0.0,0.0
322,80.25,56.3444,60.3752,167.079,100.378,100.488,0.00098974,0.0473419,20.9327,123.013,-0.0100213,0.0,0.0
329,82,56.4394,60.1774,169.635,100.335,100.435,0.00110614,0.0473295,20.9327,123.013,-0.00916083,0.0,0.0
336,83.75,56.5583,59.9701,167.399,100.237,100.369,0.0012079,0.0475114,20.9327,123.003,-0.0121219,0.0,0.0
343,85.5,56.5599,59.9118,163.996,100.199,100.279,0.00121507,0.0475523,20.9327,122.953,-0.00739234,0.0,0.0
350,87.25,56.6801,60.2431,169.003,100.152,100.285,0.00116803,0.0476231,20.9318,122.903,-0.0121652,0.0,0.0
357,89,56.0329,59.9526,167.929,100.085,100.217,0.00115333,0.0477856,20.931,122.923,-0.0120604,0.0,0.0
364,90.75,56.5056,59.4191,170.303,100.079,100.223,0.00121686,0.0480268,20.9307,122.973,-0.0132094,0.0,0.0
371,92.5,55.8311,59.8205,163.797,100.071,100.19,0.00128969,0.0480946,20.9305,122.943,-0.010928,0.0,0.0
378,94.25,56.1754,59.7235,165.128,100.1,100.184,0.00137292,0.0481026,20.9304,122.993,-0.00770453,0.0,0.0
385,96,56.1611,59.84,171.036,100.1,100.26,0.00145449,0.048236,20.9304,123.003,-0.0146292,0.0,0.0
392,97.75,56.0664,60.1091,164.05,100.151,100.264,0.00153756,0.0482978,20.9304,122.983,-0.0103731,0.0,0.0
399,99.5,56.1551,59.753,167.33,100.184,100.274,0.00163582,0.0485576,20.9296,122.913,-0.00827737,0.0,0.0
406,101.25,56.4254,59.5194,165.311,100.169,100.324,0.00182572,0.0487657,20.9303,122.843,-0.0142174,0.0,0.0
413,103,56.5417,59.2132,164.988,100.182,100.384,0.00198701,0.0489189,20.9308,122.893,-0.0185143,0.0,0.0
420,104.75,56.6827,59.3885,168.807,100.262,100.4,0.00198746,0.0490379,20.931,122.873,-0.01269,0.0,0.0
427,106.5,56.0487,59.2925,166.106,100.239,100.4,0.00190963,0.0491096,20.9309,122.893,-0.0148011,0.0,0.0
434,108.25,56.1799,59.5614,161.699,100.253,100.403,0.00181512,0.0491066,20.9298,122.883,-0.0137513,0.0,0.0
441,110,56.1959,59.4843,167.326,100.263,100.386,0.00177014,0.0492067,20.9293,122.853,-0.0112941,0.0,0.0
448,111.75,55.8351,59.2659,165.452,100.281,100.398,0.00189843,0.049281,20.93,122.813,-0.0107046,0.0,0.0
455,113.5,55.7332,59.3731,169.346,100.281,100.395,0.00210664,0.0493065,20.9305,122.773,-0.010501,0.0,0.0
462,115.25,55.9956,59.483,167.994,100.283,100.402,0.00224773,0.0493707,20.9308,122.773,-0.0109077,0.0,0.0
469,117,55.903,59.3982,168.213,100.287,100.393,0.00227784,0.0493385,20.9309,122.823,-0.00971564,0.0,0.0
476,118.75,55.8078,59.4114,163.022,100.277,100.364,0.00226536,0.0494354,20.931,122.843,-0.00791303,0.0,0.0
483,120.5,55.9321,59.3852,170.708,100.265,100.407,0.00232552,0.0493272,20.931,122.783,-0.0130178,0.0,0.0
490,122.25,56.2092,59.4436,168.349,100.274,100.397,0.00244983,0.0492769,20.931,122.763,-0.0112195,0.0,0.0
497,124,56.154,59.0911,174.799,100.271,100.367,0.00246702,0.0492109,20.931,122.823,-0.00882335,0.0,0.0
504,125.75,55.8389,59.3387,170.16,100.236,100.339,0.00236636,0.0492739,20.931,122.803,-0.00946155,0.0,0.0
511,127.5,55.9147,59.3167,170.222,100.235,100.359,0.0022671,0.0494398,20.931,122.763,-0.011411,0.0,0.0
518,129.25,56.1541,59.2414,167.611,100.241,100.407,0.00218928,0.0494746,20.931,122.733,-0.0152684,0.0,0.0
525,131,55.8041,59.208,163.75,100.222,100.349,0.00211726,0.0493301,20.9311,122.723,-0.0116114,0.0,0.0
532,132.75,56.0504,59.7179,169.32,100.187,100.284,0.00210405,0.049068,20.9315,122.723,-0.00892322,0.0,0.0
539,134.5,56.2072,58.7789,165.498,100.172,100.302,0.00215832,0.0490617,20.9313,122.693,-0.0119308,0.0,0.0
546,136.25,56.0946,59.4991,164.689,100.185,100.288,0.00231704,0.0489827,20.9308,122.693,-0.00944399,0.0,0.0
553,138,56.0692,59.3476,171.327,100.136,100.233,0.0024644,0.0488692,20.9306,122.723,-0.00897754,0.0,0.0
560,139.75,56.3174,59.6282,170.537,100.134,100.222,0.00249163,0.0487881,20.9305,122.673,-0.00804197,0.0,0.0
567,141.5,56.2452,59.3338,166.219,100.09,100.233,0.00246773,0.0490281,20.9301,122.683,-0.0131402,0.0,0.0
574,143.25,55.6479,59.189,172.234,100.116,100.244,0.00250219,0.0491046,20.9298,122.693,-0.0117448,0.0,0.0
581,145,56.3136,59.8464,167.541,100.092,100.173,0.00259543,0.0490424,20.9297,122.643,-0.00739618,0.0,0.0
588,146.75,56.4279,59.142,165.316,100.09,100.218,0.00264053,0.0489592,20.9296,122.683,-0.0117826,0.0,0.0
592,147.75,55.9093,59.717,166.801,100.088,100.199,0.00258908,0.0489189,20.9296,122.673,-0.0101733,0.0,0.0