File: 01_Data/PEVA/Cone/PEVA_Cone_HF25Scalar_240820_R3.csv
LABORATORY,FSRI
TEST IDENT,PEVA_HF25_R3
OPERATOR,Dow
MATERIAL,polyethylene vinyl acetate shower curtain
ORIENTATION,Horizontal
HEAT FLUX,25
SURF AREA,0.01
C FACTOR,0.0397271
SPEC HOLDER DIFF,-566
SPECIMEN MASS,3.25
SCAN TIME,0.25
O2 DELAY TIME,11
CO DELAY TIME,11
CO2 DELAY TIME,8
FLOW FACTOR,1
SCAN COUNT,650
TIME TO IGN,14
END OF TEST SCAN,170
END OF TEST TIME,42.5
TEST STATUS,1
PRE TEST CMT,Dimensions: 102 x 101.5 x 0.29 mm; with calcium silicate substrate; secured to substrate by a staple in each corner (see pre-test pictures)