File: 01_Data/PEVA/Cone/PEVA_Cone_HF25Scan_240820_R2.csv
Names,Time,Stack TC,Smoke TC,Exh Press,Smoke Comp,Smoke Meas,CO Meter,CO2 Meter,O2 Meter,Sample Mass,Ext Coeff,Start Test,Flame Verif
Chan Gain,,500,500,1,1,1,1,1,1,1,1,1.0,1.0
Offset,,0,0,0.143687,0,0,0,0,0,0,0,0.0,0.0
Gain,,1,1,25.011,11.7833,14.1275,1,1,1,1.00092,1.04852,1.0,1.0
Units,sec,C,C,Pa,%,%,%,%,%,g,/m,,
Baseline,,44.4931,46.5317,174.919,100.318,100.312,-0.000459727,0.0426278,20.9418,-446.876,0.000547959,,
7,1.5,43.3315,45.7137,173.991,99.8235,99.7518,-0.000274024,0.0572714,20.9315,121.491,0.0066047,0.0,0.0
14,3.25,43.4714,45.9125,171.749,99.8465,99.7751,-0.000363522,0.0579951,20.9298,121.411,0.0065784,0.0,0.0
21,5,44.0153,45.9644,172.169,99.8533,99.7432,-0.000418482,0.0579498,20.9281,121.471,0.0101495,0.0,0.0
28,6.75,43.2213,45.5518,177.743,99.8465,99.6936,-0.000366946,0.0570142,20.9265,121.431,0.0140925,0.0,0.0
35,8.5,43.5816,45.9632,175.557,99.8436,99.5143,-0.000276373,0.0559437,20.9259,121.431,0.0303888,0.0,0.0
42,10.25,44.0741,45.874,168.68,99.8713,99.256,-0.000223848,0.0544334,20.9265,121.431,0.0568404,0.0,0.0
49,12,43.8626,45.9107,173.989,99.8842,98.5576,-0.000208462,0.052617,20.9276,121.401,0.122981,0.0,0.0
56,13.75,43.6234,46.5931,155.263,99.8616,71.2286,-0.000196628,0.0510384,20.9297,121.191,3.10775,0.0,1.0
63,15.5,45.1262,48.2032,140.472,99.8817,46.5236,-0.000193014,0.0498194,20.9313,120.431,7.02714,0.0,1.0
70,17.25,49.1737,53.5682,155.972,99.8724,51.0428,-0.00020055,0.0485269,20.9329,120.02,6.17363,0.0,1.0
77,19,51.0431,56.6286,152.527,99.9055,52.0335,-0.000235969,0.047792,20.9347,119.62,5.99986,0.0,1.0
84,20.75,52.606,59.1282,153.036,99.8832,43.1262,-0.000261881,0.0542637,20.9355,119.299,7.7247,0.0,0.0
91,22.5,53.9522,60.5773,158.463,99.8958,45.7213,0.00136523,0.0982352,20.9349,119.009,7.18844,0.0,0.0
98,24.25,54.3675,61.4949,161.461,99.9105,47.4648,0.00835279,0.227974,20.8751,118.799,6.84558,0.0,0.0
105,26,54.6175,61.9858,166.279,99.8641,62.192,0.0206861,0.343466,20.7116,118.709,4.35579,0.0,0.0
112,27.75,54.9605,62.2787,165.16,99.8771,73.4783,0.0319906,0.400448,20.5154,118.609,2.82317,0.0,0.0
119,29.5,54.8418,62.1699,168.751,99.8691,86.1167,0.0393142,0.401098,20.4133,118.549,1.36268,0.0,0.0
126,31.25,54.764,62.0507,167.388,99.758,89.1364,0.0401496,0.368495,20.3797,118.509,1.03546,0.0,0.0
133,33,54.017,61.1468,176.725,99.6847,91.7607,0.037277,0.333378,20.4019,118.499,0.76181,0.0,0.0
140,34.75,53.6342,60.5342,172.059,99.6843,94.288,0.0330199,0.299569,20.4445,118.459,0.51188,0.0,0.0
147,36.5,53.0593,59.3507,173.034,99.7246,95.9005,0.0272714,0.267922,20.4878,118.459,0.359635,0.0,0.0
154,38.25,52.5169,58.1082,173.984,99.7408,97.7819,0.0215148,0.232436,20.5436,118.449,0.182428,0.0,0.0
161,40,51.7087,57.4533,173.422,99.7206,99.2168,0.0165276,0.197663,20.6062,118.509,0.0465896,0.0,0.0
168,41.75,51.4828,56.628,174.959,99.73,99.4099,0.0125394,0.166037,20.6689,118.469,0.0295637,0.0,0.0
175,43.5,49.4699,54.9228,172.456,99.7131,99.6294,0.00935961,0.140233,20.7196,118.479,0.00772438,0.0,0.0
182,45.25,49.5291,53.9585,172.657,99.7239,99.6578,0.0065219,0.115309,20.7684,118.479,0.00609193,0.0,0.0
189,47,48.4885,53.7005,171.068,99.7365,99.6289,0.00490744,0.097081,20.8083,118.479,0.00991951,0.0,0.0
196,48.75,48.5795,52.8965,171.128,99.7041,99.6289,0.00346636,0.0809147,20.8439,118.459,0.00693448,0.0,0.0
203,50.5,47.7972,52.2138,179.119,99.7012,99.6996,0.00223485,0.0684169,20.8713,118.469,0.000144727,0.0,0.0
210,52.25,47.7322,51.735,178.237,99.6886,99.66,0.00134615,0.0595302,20.8959,118.479,0.00264311,0.0,0.0
217,54,47.4557,51.1239,176.221,99.7037,99.6406,0.000745392,0.0536961,20.9127,118.519,0.00582676,0.0,0.0
224,55.75,47.2218,50.3917,168.417,99.676,99.644,0.000321028,0.0499242,20.9242,118.459,0.0029533,0.0,0.0
231,57.5,46.8502,50.2058,172.018,99.6458,99.6009,5.0053e-05,0.0475686,20.9309,118.459,0.00414685,0.0,0.0
238,59.25,47.1926,50.1491,173.291,99.6358,99.6048,-0.00013026,0.0460344,20.9347,118.459,0.00285794,0.0,0.0
245,61,47.024,50.1733,174.61,99.6185,99.594,-0.000248765,0.0450217,20.9372,118.469,0.00226056,0.0,0.0
252,62.75,46.4695,49.4279,172.697,99.621,99.5612,-0.000261344,0.0443011,20.9383,118.449,0.00551995,0.0,0.0
259,64.5,46.656,49.1066,174.582,99.602,99.5444,-0.000248871,0.0438748,20.9389,118.449,0.00531395,0.0,0.0
266,66.25,46.2175,48.9554,176.016,99.6038,99.5531,-0.000266508,0.0435331,20.9391,118.459,0.00468165,0.0,0.0
273,68,46.0347,48.8928,174.73,99.5682,99.5582,-0.00031426,0.0431773,20.9407,118.459,0.000916568,0.0,0.0
280,69.75,46.0518,48.9476,171.541,99.5764,99.5134,-0.000345701,0.0430015,20.9416,118.459,0.00582348,0.0,0.0
287,71.5,45.7227,48.0844,176.715,99.5415,99.4974,-0.000391268,0.0427653,20.9427,118.459,0.00407561,0.0,0.0
294,73.25,45.6641,48.4413,173.609,99.5689,99.4854,-0.000442352,0.0426119,20.9433,118.429,0.00771561,0.0,0.0
301,75,45.3297,48.7851,175.854,99.5221,99.4755,-0.00043372,0.0425055,20.9441,118.439,0.00431453,0.0,0.0
308,76.75,45.8126,48.0012,174.012,99.5441,99.4724,-0.000365858,0.0424455,20.9436,118.449,0.00662004,0.0,0.0
315,78.5,45.4957,47.3253,173.074,99.5153,99.4798,-0.00028177,0.0424499,20.943,118.469,0.00328431,0.0,0.0
322,80.25,45.196,47.5784,173.029,99.507,99.4453,-0.000286424,0.0424156,20.9427,118.439,0.00570952,0.0,0.0
329,82,45.265,47.752,175.029,99.5149,99.4569,-0.000343695,0.0424182,20.9425,118.439,0.00536326,0.0,0.0
336,83.75,44.8957,47.476,170.45,99.5358,99.4617,-0.000377465,0.0424468,20.9432,118.419,0.00685341,0.0,0.0
343,85.5,45.2943,47.8373,176.498,99.5063,99.4759,-0.000352192,0.0424015,20.9428,118.449,0.00281191,0.0,0.0
350,87.25,44.7418,47.5454,173.431,99.5092,99.4548,-0.00025494,0.04242,20.9426,118.459,0.00503123,0.0,0.0
357,89,44.7795,47.4374,171.486,99.5002,99.4703,-0.000149688,0.042531,20.9425,118.459,0.00276477,0.0,0.0
364,90.75,44.8065,46.7238,173.599,99.521,99.4746,-0.000122631,0.0424385,20.9427,118.439,0.0042948,0.0,0.0
371,92.5,44.8202,47.2884,177.902,99.539,99.4681,-0.000158125,0.0422871,20.9429,118.419,0.0065532,0.0,0.0
378,94.25,44.4846,47.2311,168.741,99.5326,99.4944,-0.00013072,0.0421592,20.943,118.429,0.00352434,0.0,0.0
385,96,45.0912,46.8608,174.091,99.5326,99.5328,-0.00013907,0.0421343,20.943,118.389,-2.24768e-05,0.0,0.0
392,97.75,44.5054,46.4869,172.604,99.5739,99.5324,-0.000296695,0.0421819,20.943,118.399,0.00383779,0.0,0.0
399,99.5,44.5308,46.787,172.772,99.57,99.5397,-0.000457097,0.0421853,20.943,118.419,0.00279547,0.0,0.0
406,101.25,44.7701,46.5948,171.721,99.6056,99.522,-0.000482833,0.0422637,20.943,118.429,0.00771671,0.0,0.0
413,103,44.8901,46.7845,175.806,99.6117,99.5444,-0.000443497,0.0421843,20.943,118.419,0.00620917,0.0,0.0
420,104.75,44.3378,46.7887,178.984,99.6045,99.6233,-0.000492564,0.0420392,20.943,118.419,-0.00174129,0.0,0.0
427,106.5,45.0455,46.4584,170.597,99.6268,99.6195,-0.000604229,0.0418776,20.943,118.429,0.000675375,0.0,0.0
434,108.25,44.6973,46.6405,174.779,99.6444,99.61,-0.000638043,0.0417445,20.943,118.409,0.0031769,0.0,0.0
441,110,44.0239,46.4799,169.705,99.6559,99.6044,-0.000580739,0.0416644,20.943,118.409,0.00475727,0.0,0.0
448,111.75,44.6041,46.6431,174.865,99.6728,99.6315,-0.000450248,0.0417305,20.9435,118.399,0.0038093,0.0,0.0
455,113.5,44.2669,46.51,171.665,99.6854,99.663,-0.000311278,0.0418088,20.9448,118.369,0.00206544,0.0,0.0
462,115.25,45.0271,46.3838,173.24,99.7188,99.7466,-0.000311299,0.0419438,20.9454,118.329,-0.00256545,0.0,0.0
469,117,44.6824,46.4192,172.509,99.7501,99.7147,-0.000358375,0.0418821,20.9458,118.389,0.00326239,0.0,0.0
476,118.75,44.5746,46.4102,181.12,99.7508,99.7238,-0.00036239,0.0418803,20.9459,118.359,0.00249294,0.0,0.0
483,120.5,44.8201,46.1269,175.297,99.7472,99.7372,-0.000297517,0.0419245,20.946,118.349,0.000929724,0.0,0.0
490,122.25,44.3361,46.1448,171.146,99.8044,99.7742,-0.000230154,0.0418326,20.946,118.389,0.00278231,0.0,0.0
497,124,44.316,46.5422,173.377,99.7987,99.8113,-0.0001803,0.0417793,20.946,118.389,-0.00116558,0.0,0.0
504,125.75,44.204,46.8935,171.33,99.8321,99.8148,-0.000215112,0.0418876,20.9449,118.369,0.00159736,0.0,0.0
511,127.5,44.8074,46.7884,173.23,99.845,99.8277,-0.000332548,0.0419394,20.9443,118.379,0.00159845,0.0,0.0
518,129.25,44.5618,46.61,170.955,99.8857,99.8833,-0.000479405,0.0419414,20.944,118.339,0.000218186,0.0,0.0
525,131,44.4198,46.7658,175.93,99.9015,99.8958,-0.000565279,0.0419946,20.9439,118.369,0.000524077,0.0,0.0
532,132.75,44.6192,46.8298,177.39,99.9206,99.9281,-0.000626088,0.0418241,20.9438,118.389,-0.000697903,0.0,0.0
539,134.5,43.795,46.5127,172.775,99.9547,99.9488,-0.000725066,0.0418006,20.9437,118.359,0.000540523,0.0,0.0
546,136.25,44.6794,46.9217,171.605,99.9835,99.9777,-0.000740475,0.0417428,20.9437,118.369,0.000529559,0.0,0.0
553,138,44.3134,46.2785,177.489,99.999,100.003,-0.000613454,0.0418127,20.9447,118.379,-0.000348122,0.0,0.0
560,139.75,44.2249,46.4953,172.753,100.022,100.002,-0.000436379,0.0418855,20.9454,118.359,0.00177494,0.0,0.0
567,141.5,44.3201,46.2958,171.694,100.023,100.032,-0.000436552,0.041957,20.9457,118.349,-0.000834967,0.0,0.0
574,143.25,44.4831,46.7364,175.513,100.045,100.046,-0.000533256,0.0417983,20.9459,118.339,-0.000118963,0.0,0.0
581,145,43.8975,46.6742,174.471,100.122,100.09,-0.000590381,0.0416584,20.946,118.299,0.00295001,0.0,0.0
588,146.75,44.3361,46.5699,172.234,100.13,100.137,-0.000629386,0.0416366,20.9448,118.339,-0.000646915,0.0,0.0
595,148.5,44.4748,46.3956,174.192,100.14,100.123,-0.000620597,0.0415945,20.9442,118.339,0.00151843,0.0,0.0
602,150.25,44.6875,46.5654,171.977,100.154,100.215,-0.000527501,0.0416713,20.944,118.339,-0.00562584,0.0,0.0
609,152,44.0611,46.7038,177.654,100.227,100.198,-0.000417804,0.0417336,20.9438,118.339,0.0026464,0.0,0.0
616,153.75,44.3205,46.2735,171.641,100.254,100.22,-0.000388102,0.0417887,20.9438,118.369,0.00318128,0.0,0.0
623,155.5,44.5754,47.1002,175.764,100.278,100.302,-0.000455628,0.0417433,20.9437,118.339,-0.00222931,0.0,0.0
630,157.25,44.9678,46.4734,172.394,100.283,100.297,-0.000540966,0.0417134,20.9437,118.339,-0.00126646,0.0,0.0
637,159,44.3615,46.785,171.789,100.316,100.333,-0.000607284,0.0417011,20.9444,118.309,-0.00150716,0.0,0.0
644,160.75,44.206,46.5068,172.197,100.362,100.36,-0.000657421,0.0417771,20.9447,118.309,0.00018968,0.0,0.0