File: 01_Data/Thermoplastic_Helmet_Shell/STA/N2/10K_min/Thermoplastic_Helmet_Shell_STA_N2_10KData_250219_R2.csv
Temp./C,Time/min,DSC/(mW/mg),Mass loss/mg
35.0,0.0,0.451042,-0.0294169
37.4,0.322872,0.497369,-0.0296922
39.8,0.632904,0.529289,-0.0296413
42.2,0.927948,0.560809,-0.0293109
44.6,1.21759,0.594411,-0.0310629
47,1.49801,0.621135,-0.0319893
49.4,1.77531,0.627953,-0.0335
51.8,2.04113,0.640082,-0.0336785
54.2,2.30321,0.649457,-0.0350197
56.6,2.5684,0.653632,-0.0362991
59,2.82365,0.665287,-0.0363279
61.4,3.07852,0.684315,-0.0356856
63.8,3.32532,0.692766,-0.0383478
66.2,3.57569,0.711854,-0.0365908
68.6,3.82156,0.720741,-0.0364487
71,4.06512,0.731376,-0.0390689
73.4,4.30893,0.743901,-0.0377738
75.8,4.55269,0.743938,-0.0390832
78.2,4.79295,0.773457,-0.0390842
80.6,5.03291,0.789354,-0.0403433
83,5.27138,0.798092,-0.0416958
85.4,5.50977,0.809267,-0.04168
87.8,5.74577,0.809618,-0.0401809
90.2,5.98115,0.818922,-0.0401983
92.6,6.21464,0.821609,-0.0424789
95,6.44716,0.825141,-0.0425074
97.4,6.6773,0.835824,-0.0421114
99.8,6.91244,0.841414,-0.0407835
102.2,7.14286,0.847377,-0.0415006
104.6,7.3737,0.854727,-0.0415
107,7.60372,0.858737,-0.0423342
109.4,7.83407,0.869877,-0.0428264
111.8,8.06587,0.872618,-0.0415001
114.2,8.29455,0.878949,-0.0427307
116.6,8.52423,0.875155,-0.0428444
119,8.75451,0.874188,-0.0410994
121.4,8.98389,0.861228,-0.0431394
123.8,9.21203,0.858574,-0.0431403
126.2,9.44148,0.855302,-0.04315
128.6,9.67077,0.857495,-0.04314
131,9.90024,0.889803,-0.0431327
133.4,10.1285,0.926681,-0.0430609
135.8,10.3569,0.956728,-0.0448455
138.2,10.5845,0.987821,-0.0444685
140.6,10.8134,1.0336,-0.0454812
143,11.0409,1.07022,-0.0447846
145.4,11.2673,1.09946,-0.0444923
147.8,11.4951,1.10909,-0.0456854
150.2,11.7225,1.11967,-0.0457811
152.6,11.9495,1.11791,-0.0466717
155,12.1755,1.12974,-0.04589
157.4,12.3994,1.13449,-0.0478785
159.8,12.6286,1.14814,-0.0478603
162.2,12.8546,1.14859,-0.0463366
164.6,13.0806,1.155,-0.0475803
167,13.3062,1.14812,-0.0465412
169.4,13.5325,1.15508,-0.04786
171.8,13.7588,1.16785,-0.0491579
174.2,13.986,1.16701,-0.04885
176.6,14.211,1.17026,-0.0478705
179,14.4365,1.16534,-0.0491801
181.4,14.6627,1.18189,-0.0485178
183.8,14.8888,1.18165,-0.0494854
186.2,15.116,1.17849,-0.0495028
188.6,15.3417,1.18565,-0.0505002
191,15.5668,1.18658,-0.0502602
193.4,15.7931,1.18128,-0.0514823
195.8,16.0177,1.19837,-0.0528
198.2,16.2422,1.19176,-0.05182
200.6,16.4701,1.19642,-0.05314
203,16.6959,1.19838,-0.0528022
205.4,16.9228,1.20154,-0.0531381
207.8,17.1472,1.19752,-0.053432
210.2,17.3738,1.20285,-0.0541256
212.6,17.5994,1.20229,-0.05544
215,17.8259,1.20843,-0.0530372
217.4,18.0511,1.21049,-0.0528018
219.8,18.2787,1.21238,-0.0544464
222.2,18.503,1.21716,-0.0544499
224.6,18.7306,1.21114,-0.0561
227,18.9554,1.22531,-0.05511
229.4,19.1826,1.22966,-0.05478
231.8,19.4095,1.2527,-0.0561345
234.2,19.637,1.27968,-0.056096
236.6,19.864,1.29678,-0.0562483
239,20.0905,1.34043,-0.05741
241.4,20.3174,1.38644,-0.05873
243.8,20.5449,1.45666,-0.05873
246.2,20.7741,1.55437,-0.05873
248.6,21.0015,1.68589,-0.0587166
251,21.2303,1.82975,-0.0584098
253.4,21.4584,1.88099,-0.0572958
255.8,21.6841,1.67579,-0.0597199
258.2,21.9073,1.42099,-0.05972
260.6,22.1328,1.2777,-0.0596947
263,22.3604,1.23158,-0.0607105
265.4,22.5849,1.22459,-0.05939
267.8,22.8139,1.21512,-0.0584001
270.2,23.0406,1.21106,-0.0570775
272.6,23.2698,1.20806,-0.05873
275,23.4959,1.19737,-0.05873
277.4,23.7248,1.20386,-0.0597221
279.8,23.9522,1.18564,-0.0584002
282.2,24.1798,1.18699,-0.05972
284.6,24.4084,1.18099,-0.0597199
287,24.636,1.16879,-0.0584178
289.4,24.8643,1.16464,-0.0591483
291.8,25.0924,1.15008,-0.0617293
294.2,25.3205,1.15454,-0.0586218
296.6,25.5482,1.14153,-0.0627845
299,25.7771,1.13159,-0.0596001
301.4,26.0043,1.12415,-0.0631224
303.8,26.2332,1.10624,-0.0630312
306.2,26.4621,1.09928,-0.0627877
308.6,26.6916,1.08278,-0.0641101
311,26.9188,1.06307,-0.066741
313.4,27.1475,1.0308,-0.0676478
315.8,27.3768,0.999816,-0.070705
318.2,27.6054,0.980758,-0.0714094
320.6,27.834,0.94265,-0.0732727
323,28.0632,0.927627,-0.0745817
325.4,28.2915,0.883886,-0.0782571
327.8,28.5217,0.85612,-0.07992
330.2,28.7503,0.837978,-0.0824289
332.6,28.9808,0.811595,-0.0832211
335,29.2099,0.775983,-0.0871223
337.4,29.4392,0.749173,-0.0910034
339.8,29.6701,0.72979,-0.0950722
342.2,29.8999,0.726556,-0.099019
344.6,30.1312,0.707861,-0.104489
347,30.3619,0.716239,-0.11231
349.4,30.5913,0.715607,-0.115179
351.8,30.8229,0.731153,-0.122449
354.2,31.0542,0.732433,-0.129491
356.6,31.2855,0.748405,-0.136381
359,31.5171,0.767281,-0.144881
361.4,31.7483,0.798558,-0.153543
363.8,31.9793,0.832838,-0.160933
366.2,32.2115,0.855824,-0.170702
368.6,32.4435,0.882776,-0.179621
371,32.676,0.920197,-0.188198
373.4,32.9076,0.940927,-0.19861
375.8,33.14,0.967662,-0.209296
378.2,33.3724,0.987951,-0.219695
380.6,33.6044,1.00237,-0.232813
383,33.8378,1.025,-0.244266
385.4,34.0695,1.03697,-0.256471
387.8,34.302,1.05823,-0.270826
390.2,34.5343,1.06582,-0.286686
392.6,34.767,1.08635,-0.301523
395,34.9999,1.10223,-0.320456
397.4,35.2305,1.10708,-0.340134
399.8,35.4648,1.10533,-0.361906
402.2,35.6994,1.10554,-0.387977
404.6,35.9331,1.11044,-0.416133
407,36.1655,1.11857,-0.445264
409.4,36.4001,1.11306,-0.482715
411.8,36.6328,1.12358,-0.522413
414.2,36.8653,1.14742,-0.567118
416.6,37.0994,1.16283,-0.613129
419,37.3329,1.17677,-0.665399
421.4,37.5676,1.18526,-0.721833
423.8,37.8007,1.20895,-0.778732
426.2,38.0354,1.21454,-0.8385
428.6,38.2695,1.20734,-0.898095
431,38.5027,1.17934,-0.959511
433.4,38.7372,1.16011,-1.01947
435.8,38.9711,1.14584,-1.08272
438.2,39.2059,1.11173,-1.14414
440.6,39.4404,1.0629,-1.20368
443,39.6734,1.01509,-1.2662
445.4,39.9079,0.980088,-1.32932
447.8,40.1434,0.937774,-1.38909
450.2,40.3781,0.899335,-1.45144
452.6,40.6128,0.873491,-1.51202
455,40.8487,0.872376,-1.5745
457.4,41.0835,0.967692,-1.63819
459.8,41.3211,1.03499,-1.70391
462.2,41.5581,1.07184,-1.76775
464.6,41.794,1.10451,-1.82602
467,42.0287,1.11103,-1.88147
469.4,42.2645,1.09447,-1.9367
471.8,42.5005,1.08868,-1.98899
474.2,42.7351,1.0562,-2.04061
476.6,42.9705,1.01729,-2.09284
479,43.206,0.970991,-2.14137
481.4,43.4418,0.912646,-2.19368
483.8,43.6769,0.840068,-2.24374
486.2,43.9117,0.782017,-2.29456
488.6,44.1486,0.720969,-2.34409
491,44.3854,0.671737,-2.39655
493.4,44.6215,0.627624,-2.44932
495.8,44.8574,0.599392,-2.50259
498.2,45.0945,0.568789,-2.55891
500.6,45.3315,0.534875,-2.61006
503,45.5677,0.505352,-2.66155
505.4,45.8035,0.479185,-2.70972
507.8,46.0418,0.456213,-2.75533
510.2,46.2772,0.435543,-2.79809
512.6,46.5167,0.420016,-2.83597
515,46.7532,0.401329,-2.86993
517.4,46.9907,0.363084,-2.90227
519.8,47.2275,0.319626,-2.93254
522.2,47.4644,0.266237,-2.95791
524.6,47.7012,0.230234,-2.98262
527,47.9379,0.174001,-3.00423
529.4,48.1745,0.139469,-3.02481
531.8,48.4113,0.102084,-3.0424
534.2,48.6484,0.0665401,-3.05961
536.6,48.8858,0.0281109,-3.07318
539,49.1227,-0.0099515,-3.08437
541.4,49.3623,-0.0301336,-3.09962
543.8,49.5993,-0.10724,-3.10693
546.2,49.8384,-0.0787935,-3.11825
548.6,50.0761,-0.0682552,-3.12534
551,50.314,-0.0720172,-3.13531
553.4,50.553,-0.0866884,-3.14232
555.8,50.792,-0.0876695,-3.14969
558.2,51.0314,-0.0947609,-3.1557
560.6,51.2701,-0.112349,-3.16242
563,51.5085,-0.118414,-3.16635
565.4,51.7484,-0.123898,-3.17307
567.8,51.9861,-0.125117,-3.17984
570.2,52.225,-0.127755,-3.18271
572.6,52.4645,-0.124874,-3.18819
575,52.7033,-0.128154,-3.1927
577.4,52.9428,-0.12043,-3.19719
579.8,53.1806,-0.122071,-3.20073
582.2,53.422,-0.130668,-3.20466
584.6,53.6599,-0.133215,-3.20748
587,53.9007,-0.137129,-3.21272
589.4,54.139,-0.14327,-3.21403
591.8,54.3773,-0.154113,-3.21729
594.2,54.6179,-0.164447,-3.21993
596.6,54.8584,-0.179307,-3.22385
599,55.096,-0.193979,-3.22651
601.4,55.338,-0.212996,-3.22981
603.8,55.5774,-0.227879,-3.23012
606.2,55.8169,-0.244178,-3.23239
608.6,56.0581,-0.257782,-3.23507
611,56.2977,-0.264765,-3.23583
613.4,56.5358,-0.286296,-3.23739
615.8,56.7775,-0.293842,-3.23987
618.2,57.0165,-0.314639,-3.24166
620.6,57.2569,-0.321675,-3.24169
623,57.4967,-0.331321,-3.24364
625.4,57.7368,-0.338619,-3.24397
627.8,57.977,-0.354732,-3.24528
630.2,58.2169,-0.361457,-3.24792
632.6,58.4576,-0.363748,-3.24757
635,58.6978,-0.383181,-3.25053
637.4,58.9372,-0.400997,-3.25187
639.8,59.1783,-0.412977,-3.25188
642.2,59.4194,-0.42886,-3.25451
644.6,59.6587,-0.445112,-3.25314
647,59.8997,-0.474249,-3.25334
649.4,60.1373,-0.473738,-3.25432
651.8,60.3806,-0.475885,-3.25682
654.2,60.6206,-0.500789,-3.25551
656.6,60.8607,-0.504021,-3.25681
659,61.1004,-0.506954,-3.25678
661.4,61.3415,-0.514634,-3.25714
663.8,61.582,-0.531502,-3.26006
666.2,61.8226,-0.5409,-3.25717
668.6,62.0636,-0.556434,-3.25977
671,62.3038,-0.581728,-3.25976
673.4,62.545,-0.586839,-3.26109
675.8,62.7854,-0.612245,-3.2611
678.2,63.0268,-0.632851,-3.26241
680.6,63.2683,-0.653639,-3.26373
683,63.5088,-0.666099,-3.2651
685.4,63.7514,-0.679418,-3.26472
687.8,63.9927,-0.683403,-3.26636
690.2,64.2334,-0.700167,-3.26504
692.6,64.475,-0.722025,-3.26636
695,64.7159,-0.736573,-3.2658
697.4,64.9571,-0.757896,-3.26537
699.8,65.1949,-0.774585,-3.2667
702.2,65.4384,-0.791287,-3.268
704.6,65.6793,-0.802563,-3.26801
707,65.9206,-0.810722,-3.26867
709.4,66.1624,-0.832599,-3.27004
711.8,66.4048,-0.841902,-3.27009
714.2,66.6451,-0.866524,-3.26928
716.6,66.8879,-0.884607,-3.27042
719,67.1308,-0.889319,-3.2701
721.4,67.3738,-0.920837,-3.27141
723.8,67.6151,-0.945221,-3.27143
726.2,67.8572,-0.955912,-3.27141
728.6,68.0985,-0.974149,-3.27306
731,68.3407,-0.988689,-3.27207
733.4,68.5823,-1.02662,-3.27339
735.8,68.8251,-1.04509,-3.27207
738.2,69.0674,-1.06711,-3.2734
740,69.2497,-1.09534,-3.27462