File: 01_Data/Thermoplastic_Helmet_Shell/STA/N2/10K_min/Thermoplastic_Helmet_Shell_STA_N2_10KData_250219_R1.csv
Temp./C,Time/min,DSC/(mW/mg),Mass loss/mg
35.0,0.0,0.56398,0.0140943
37.4,0.326152,0.609778,0.0122408
39.8,0.637934,0.641105,0.0137078
42.2,0.934899,0.667521,0.012835
44.6,1.22307,0.693637,0.0125728
47,1.50526,0.717714,0.0116784
49.4,1.77644,0.742336,0.0113942
51.8,2.04993,0.760591,0.0107237
54.2,2.31539,0.771863,0.0119715
56.6,2.57552,0.780455,0.0115829
59,2.83212,0.795054,0.00837481
61.4,3.08486,0.809222,0.00973336
63.8,3.33496,0.825613,0.010617
66.2,3.5816,0.834971,0.0106441
68.6,3.82782,0.845542,0.0106636
71,4.07306,0.859305,0.00934477
73.4,4.31672,0.876664,0.00950571
75.8,4.55833,0.893198,0.00788887
78.2,4.79832,0.916176,0.00789534
80.6,5.0386,0.924624,0.0105719
83,5.27685,0.927249,0.00921888
85.4,5.51244,0.945015,0.00923057
87.8,5.75198,0.958429,0.00924712
90.2,5.98674,0.962361,0.0115733
92.6,6.2209,0.973091,0.0105578
95,6.45481,0.984623,0.00811254
97.4,6.68722,0.99018,0.00923438
99.8,6.91849,0.995338,0.0105444
102.2,7.15054,1.00039,0.0105184
104.6,7.38025,1.00997,0.00779997
107,7.61078,1.01535,0.0078352
109.4,7.84156,1.02058,0.00782743
111.8,8.07223,1.03132,0.00845045
114.2,8.30281,1.03333,0.00911
116.6,8.53353,1.0366,0.00782426
119,8.7632,1.03546,0.00911988
121.4,8.9904,1.0271,0.0064796
123.8,9.22048,1.0205,0.00584641
126.2,9.45024,1.01574,0.00582848
128.6,9.67906,1.03068,0.0071398
131,9.90697,1.06822,0.00721478
133.4,10.136,1.10823,0.0071466
135.8,10.3658,1.13358,0.00746696
138.2,10.5938,1.17255,0.00647997
140.6,10.8215,1.22732,0.0038609
143,11.049,1.25254,0.00652557
145.4,11.2769,1.28316,0.00520255
147.8,11.5025,1.27417,0.00373962
150.2,11.7299,1.28069,0.0052161
152.6,11.9561,1.29002,0.00385
155,12.1829,1.29207,0.00149963
157.4,12.4083,1.29709,0.00384874
159.8,12.6345,1.2981,0.00385
162.2,12.861,1.30878,0.00253
164.6,13.0856,1.3163,0.00253023
167,13.313,1.31861,0.0025183
169.4,13.5385,1.32303,0.00121573
171.8,13.7649,1.32229,-9.99511e-05
174.2,13.9925,1.33124,0.000236429
176.6,14.2184,1.33623,0.00120861
179,14.4435,1.3331,-0.000689897
181.4,14.6706,1.34171,-0.000759929
183.8,14.8973,1.34429,-0.00208
186.2,15.1227,1.34848,-0.00141633
188.6,15.3479,1.36774,-0.00208364
191,15.5739,1.37214,-0.00274
193.4,15.799,1.37304,-0.00142838
195.8,16.0258,1.37161,-0.00241001
198.2,16.2508,1.37801,-0.00241342
200.6,16.4763,1.37577,-0.00373
203,16.7026,1.37602,-0.00339313
205.4,16.9284,1.38734,-0.00471968
207.8,17.1543,1.40102,-0.00442606
210.2,17.3805,1.39257,-0.00370605
212.6,17.6064,1.39545,-0.00438
215,17.833,1.40701,-0.00447098
217.4,18.0578,1.41147,-0.00537219
219.8,18.2856,1.41525,-0.00540921
222.2,18.5122,1.42384,-0.00438999
224.6,18.7389,1.42681,-0.00561326
227,18.9651,1.44158,-0.00513748
229.4,19.1915,1.44865,-0.0060335
231.8,19.4179,1.46326,-0.00479636
234.2,19.645,1.48412,-0.00557912
236.6,19.8709,1.51261,-0.00603156
239,20.0982,1.54339,-0.00669
241.4,20.3255,1.58792,-0.00702
243.8,20.554,1.66071,-0.00739317
246.2,20.7793,1.74645,-0.00699306
248.6,21.0096,1.88339,-0.00832602
251,21.2386,2.04014,-0.0087846
253.4,21.466,2.09734,-0.00745744
255.8,21.6925,1.90245,-0.00778999
258.2,21.9167,1.64024,-0.00713004
260.6,22.1409,1.4952,-0.00779
263,22.3677,1.44605,-0.00911009
265.4,22.595,1.42532,-0.00910999
267.8,22.8228,1.40794,-0.0090046
270.2,23.0501,1.41447,-0.0101
272.6,23.2772,1.41396,-0.00976977
275,23.5052,1.39922,-0.0123387
277.4,23.7306,1.39332,-0.011727
279.8,23.9599,1.39682,-0.01108
282.2,24.1874,1.38836,-0.0133898
284.6,24.4158,1.37482,-0.0120745
287,24.6431,1.37791,-0.0141959
289.4,24.8721,1.36862,-0.01416
291.8,25.0994,1.359,-0.0141779
294.2,25.3282,1.34805,-0.01416
296.6,25.5558,1.33758,-0.01482
299,25.7849,1.31489,-0.0135
301.4,26.0122,1.30821,-0.01581
303.8,26.2416,1.29273,-0.0171199
306.2,26.4701,1.27051,-0.01745
308.6,26.6993,1.24538,-0.0167968
311,26.928,1.23684,-0.0187734
313.4,27.1564,1.2148,-0.0200777
315.8,27.3848,1.19528,-0.0217295
318.2,27.6137,1.17377,-0.0230499
320.6,27.8413,1.13385,-0.02305
323,28.0707,1.12093,-0.0256797
325.4,28.3,1.08102,-0.0289099
327.8,28.5293,1.05415,-0.0322375
330.2,28.7589,1.02528,-0.0349899
332.6,28.9881,0.988267,-0.0361747
335,29.2173,0.962455,-0.0415182
337.4,29.4475,0.941055,-0.0453337
339.8,29.6778,0.926013,-0.0511998
342.2,29.9082,0.904573,-0.0547709
344.6,30.1383,0.893229,-0.0613741
347,30.3685,0.89239,-0.0670792
349.4,30.5992,0.886947,-0.0748538
351.8,30.829,0.888832,-0.0815394
354.2,31.0601,0.90101,-0.0893554
356.6,31.2914,0.922564,-0.0954827
359,31.5225,0.948494,-0.10495
361.4,31.754,0.96593,-0.113849
363.8,31.9866,0.983301,-0.124287
366.2,32.2179,1.01926,-0.132167
368.6,32.4504,1.05453,-0.142602
371,32.6819,1.08725,-0.153691
373.4,32.9154,1.1204,-0.163663
375.8,33.1473,1.15167,-0.174025
378.2,33.3786,1.15956,-0.186679
380.6,33.6116,1.18844,-0.200014
383,33.844,1.2082,-0.211987
385.4,34.0763,1.22504,-0.22812
387.8,34.3087,1.23036,-0.244211
390.2,34.5423,1.24485,-0.258717
392.6,34.7748,1.25201,-0.276372
395,35.0081,1.27473,-0.296155
397.4,35.2402,1.28811,-0.319057
399.8,35.4734,1.29596,-0.341613
402.2,35.7064,1.28436,-0.369865
404.6,35.9409,1.27743,-0.400827
407,36.1726,1.25861,-0.435341
409.4,36.4057,1.25919,-0.472148
411.8,36.6387,1.26449,-0.514681
414.2,36.8721,1.26451,-0.568489
416.6,37.106,1.27229,-0.62482
419,37.339,1.3009,-0.690647
421.4,37.5739,1.33453,-0.759742
423.8,37.8064,1.35271,-0.832178
426.2,38.0412,1.37874,-0.903897
428.6,38.2753,1.38155,-0.979458
431,38.5079,1.37643,-1.05366
433.4,38.7422,1.35659,-1.12511
435.8,38.9761,1.34499,-1.20083
438.2,39.2102,1.31664,-1.27253
440.6,39.444,1.29393,-1.34347
443,39.6784,1.24793,-1.4147
445.4,39.9142,1.22956,-1.4859
447.8,40.1478,1.19027,-1.55613
450.2,40.3829,1.18217,-1.62511
452.6,40.6181,1.17819,-1.69316
455,40.8543,1.19921,-1.7611
457.4,41.0888,1.2174,-1.82338
459.8,41.3246,1.20684,-1.88554
462.2,41.5594,1.21176,-1.94474
464.6,41.7954,1.19799,-1.99807
467,42.0304,1.17512,-2.05114
469.4,42.2656,1.148,-2.09645
471.8,42.5006,1.11252,-2.14007
474.2,42.7357,1.07468,-2.18081
476.6,42.9714,1.04059,-2.22244
479,43.2075,1.00962,-2.26138
481.4,43.4425,0.964065,-2.2995
483.8,43.6788,0.932143,-2.33623
486.2,43.915,0.898359,-2.37397
488.6,44.1515,0.882877,-2.41538
491,44.3879,0.866289,-2.45826
493.4,44.6228,0.855914,-2.50213
495.8,44.8606,0.844046,-2.55071
498.2,45.0976,0.836126,-2.60017
500.6,45.3336,0.811524,-2.6486
503,45.5695,0.803411,-2.70092
505.4,45.8059,0.769803,-2.75031
507.8,46.0424,0.741203,-2.79655
510.2,46.2802,0.707575,-2.84292
512.6,46.5173,0.677935,-2.88507
515,46.7538,0.639346,-2.92571
517.4,46.9883,0.608539,-2.96047
519.8,47.2279,0.543233,-2.9953
522.2,47.4651,0.477733,-3.02803
524.6,47.7008,0.410392,-3.05602
527,47.9381,0.32913,-3.08298
529.4,48.1748,0.237455,-3.10627
531.8,48.4114,0.166787,-3.13023
534.2,48.648,0.110995,-3.14729
536.6,48.8861,0.0609432,-3.16601
539,49.1241,0.0283612,-3.18151
541.4,49.3614,-0.00869018,-3.19453
543.8,49.5986,-0.0293437,-3.2066
546.2,49.8365,-0.0715815,-3.21989
548.6,50.0739,-0.0764352,-3.22903
551,50.3125,-0.0840266,-3.23825
553.4,50.55,-0.109296,-3.24486
555.8,50.7892,-0.137689,-3.25305
558.2,51.0273,-0.14711,-3.2602
560.6,51.267,-0.157932,-3.26563
563,51.505,-0.153189,-3.27252
565.4,51.7432,-0.157559,-3.27931
567.8,51.9831,-0.158339,-3.28376
570.2,52.2215,-0.162462,-3.28832
572.6,52.4598,-0.164647,-3.29367
575,52.6986,-0.158008,-3.29776
577.4,52.9383,-0.166274,-3.30292
579.8,53.1776,-0.17253,-3.30686
582.2,53.4168,-0.177193,-3.31082
584.6,53.6567,-0.177033,-3.31476
587,53.897,-0.182192,-3.31582
589.4,54.1361,-0.174669,-3.32069
591.8,54.3766,-0.18361,-3.32136
594.2,54.6148,-0.181538,-3.32531
596.6,54.8565,-0.183094,-3.32795
599,55.0951,-0.18686,-3.32992
601.4,55.3355,-0.186943,-3.33256
603.8,55.5746,-0.195376,-3.33571
606.2,55.8161,-0.203503,-3.33915
608.6,56.0553,-0.195284,-3.3398
611,56.2945,-0.200452,-3.34239
613.4,56.535,-0.193536,-3.34613
615.8,56.7755,-0.203043,-3.346
618.2,57.0159,-0.203861,-3.35065
620.6,57.2559,-0.201418,-3.35243
623,57.4962,-0.204273,-3.35375
625.4,57.7362,-0.20214,-3.35374
627.8,57.975,-0.201497,-3.35376
630.2,58.2161,-0.193177,-3.35638
632.6,58.4564,-0.201679,-3.35638
635,58.6967,-0.207205,-3.35836
637.4,58.9372,-0.206173,-3.36034
639.8,59.177,-0.202304,-3.36066
642.2,59.4187,-0.197722,-3.35916
644.6,59.6593,-0.20734,-3.36352
647,59.8996,-0.203094,-3.36486
649.4,60.141,-0.211617,-3.36451
651.8,60.3814,-0.220184,-3.36307
654.2,60.6221,-0.206283,-3.3645
656.6,60.8636,-0.210923,-3.36451
659,61.1045,-0.224332,-3.36601
661.4,61.3448,-0.232101,-3.36583
663.8,61.5854,-0.234978,-3.36736
666.2,61.8252,-0.251874,-3.36898
668.6,62.067,-0.24198,-3.36901
671,62.307,-0.247947,-3.36903
673.4,62.5488,-0.257984,-3.37032
675.8,62.7892,-0.275014,-3.37164
678.2,63.0301,-0.275234,-3.37378
680.6,63.2701,-0.286198,-3.37295
683,63.5129,-0.290142,-3.37303
685.4,63.7536,-0.301613,-3.37409
687.8,63.9942,-0.319881,-3.37463
690.2,64.2352,-0.316399,-3.37593
692.6,64.4766,-0.33411,-3.37593
695,64.718,-0.352952,-3.37682
697.4,64.9578,-0.369385,-3.37999
699.8,65.199,-0.375175,-3.37978
702.2,65.4401,-0.383856,-3.37999
704.6,65.6819,-0.39235,-3.3813
707,65.923,-0.403121,-3.38097
709.4,66.1652,-0.411231,-3.37966
711.8,66.4072,-0.42007,-3.38097
714.2,66.6487,-0.4111,-3.38186
716.6,66.8904,-0.444772,-3.3823
719,67.1321,-0.45417,-3.38263
721.4,67.3725,-0.478007,-3.38328
723.8,67.6152,-0.47956,-3.38525
726.2,67.8555,-0.482364,-3.3852
728.6,68.0992,-0.49484,-3.38258
731,68.3405,-0.512385,-3.38525
733.4,68.5818,-0.543278,-3.38657
735.8,68.8246,-0.551503,-3.38657
738.2,69.0663,-0.57831,-3.38789
740,69.2482,-0.585081,-3.38921