File: 01_Data/Helmet_Flap/STA/N2/10K_min/Helmet_Flap_STA_N2_10KData_250516_R3.csv
Temp./C,Time/min,DSC/(mW/mg),Mass loss/mg
40.0,0.0,0.899509,-0.0986794
42.6,0.345789,1.0165,-0.105752
45.2,0.67493,1.11909,-0.110054
47.8,0.991572,1.22755,-0.115491
50.4,1.30129,1.32569,-0.119737
53,1.60127,1.4301,-0.126073
55.6,1.8921,1.52967,-0.130201
58.2,2.18199,1.63382,-0.134156
60.8,2.46332,1.71245,-0.141702
63.4,2.74077,1.78508,-0.146107
66,3.01271,1.84997,-0.15094
68.6,3.28354,1.89401,-0.156539
71.2,3.55217,1.92598,-0.160498
73.8,3.81748,1.93335,-0.167086
76.4,4.08107,1.93045,-0.17235
79,4.34157,1.92114,-0.176316
81.6,4.60235,1.88394,-0.181526
84.2,4.85988,1.85314,-0.18684
86.8,5.11796,1.80145,-0.190797
89.4,5.37431,1.74953,-0.193426
92,5.62743,1.69067,-0.19734
94.6,5.87968,1.61948,-0.200012
97.2,6.13314,1.54909,-0.201455
99.8,6.38359,1.49481,-0.203959
102.4,6.63269,1.44033,-0.205316
105,6.88059,1.37831,-0.206599
107.6,7.12954,1.32949,-0.206619
110.2,7.37837,1.27755,-0.209333
112.8,7.62827,1.24485,-0.208917
115.4,7.87552,1.22093,-0.207928
118,8.12403,1.19595,-0.205409
120.6,8.37291,1.18755,-0.205452
123.2,8.62205,1.18343,-0.200599
125.8,8.87071,1.17037,-0.196005
128.4,9.1181,1.16169,-0.188976
131,9.36527,1.15922,-0.187384
133.6,9.61173,1.14919,-0.1975
136.2,9.85581,1.15523,-0.211571
138.8,10.1054,1.15789,-0.22889
141.4,10.3533,1.16162,-0.223316
144,10.5968,1.17696,-0.22056
146.6,10.8436,1.19155,-0.214881
149.2,11.0887,1.1984,-0.210327
151.8,11.3343,1.21686,-0.219014
154.4,11.5795,1.22003,-0.214619
157,11.8234,1.23395,-0.218036
159.6,12.0687,1.23571,-0.228371
162.2,12.3132,1.2356,-0.235676
164.8,12.5583,1.25321,-0.234155
167.4,12.8025,1.25707,-0.231963
170,13.0479,1.26752,-0.234932
172.6,13.2935,1.28094,-0.227261
175.2,13.5396,1.27327,-0.228321
177.8,13.7822,1.29242,-0.232304
180.4,14.0295,1.28696,-0.242622
183,14.2746,1.27634,-0.235074
185.6,14.5196,1.284,-0.240091
188.2,14.764,1.29393,-0.237437
190.8,15.0087,1.28741,-0.237448
193.4,15.2523,1.28811,-0.23558
196,15.4972,1.28162,-0.24118
198.6,15.741,1.27662,-0.24158
201.2,15.9862,1.26525,-0.245197
203.8,16.2308,1.26471,-0.242525
206.4,16.4752,1.2623,-0.240927
209,16.7194,1.25988,-0.237404
211.6,16.9645,1.24141,-0.254469
214.2,17.2087,1.2373,-0.250408
216.8,17.4539,1.21669,-0.256648
219.4,17.6983,1.19293,-0.262525
222,17.9427,1.1901,-0.260833
224.6,18.1876,1.17475,-0.262963
227.2,18.4319,1.16259,-0.266882
229.8,18.677,1.15585,-0.271809
232.4,18.922,1.14328,-0.275734
235,19.1658,1.13722,-0.27864
237.6,19.411,1.13233,-0.288991
240.2,19.6578,1.12499,-0.296403
242.8,19.9032,1.1313,-0.302603
245.4,20.1495,1.1405,-0.30574
248,20.3948,1.15779,-0.31474
250.6,20.6407,1.22685,-0.318349
253.2,20.8912,1.53777,-0.327154
255.8,21.1393,1.72169,-0.333691
258.4,21.3814,1.40149,-0.33891
261,21.627,1.34238,-0.346469
263.6,21.8712,1.18669,-0.353717
266.2,22.1158,1.08607,-0.35997
268.8,22.3619,1.02642,-0.368896
271.4,22.6068,0.985875,-0.371588
274,22.8527,0.947291,-0.386116
276.6,23.0988,0.897092,-0.398067
279.2,23.3461,0.83891,-0.405676
281.8,23.5924,0.762516,-0.416413
284.4,23.8385,0.686329,-0.433437
287,24.0846,0.60741,-0.436881
289.6,24.3293,0.489738,-0.44615
292.2,24.5761,0.350492,-0.457009
294.8,24.8203,0.145645,-0.473549
297.4,25.0647,-0.145554,-0.490161
300,25.3078,-0.536262,-0.51474
302.6,25.548,-1.07173,-0.549455
305.2,25.7865,-1.59474,-0.60605
307.8,26.0344,-1.67968,-0.702933
310.4,26.2874,-1.23898,-0.827635
313,26.5408,-0.702785,-0.981097
315.6,26.7936,-0.362626,-1.12284
318.2,27.0445,-0.168374,-1.26511
320.8,27.2948,-0.0506989,-1.39339
323.4,27.5443,0.126147,-1.5029
326,27.7975,0.3916,-1.5844
328.6,28.0504,0.636007,-1.63621
331.2,28.3017,0.766268,-1.6613
333.8,28.5523,0.793132,-1.67325
336.4,28.8012,0.758885,-1.68575
339,29.0517,0.711045,-1.69647
341.6,29.3022,0.677792,-1.70454
344.2,29.551,0.647785,-1.71217
346.8,29.8024,0.620818,-1.72458
349.4,30.0519,0.610046,-1.73194
352,30.303,0.590365,-1.74009
354.6,30.5533,0.584715,-1.74668
357.2,30.8043,0.586487,-1.75608
359.8,31.0564,0.573721,-1.76339
362.4,31.3071,0.571472,-1.77387
365,31.5591,0.574988,-1.78396
367.6,31.8106,0.589683,-1.79654
370.2,32.0623,0.597394,-1.80376
372.8,32.3128,0.616446,-1.81321
375.4,32.5643,0.648297,-1.82295
378,32.8157,0.672839,-1.83875
380.6,33.068,0.690713,-1.84786
383.2,33.3208,0.705822,-1.85756
385.8,33.5732,0.710615,-1.87059
388.4,33.8249,0.718318,-1.88503
391,34.0769,0.714009,-1.89527
393.6,34.3298,0.725885,-1.9089
396.2,34.5828,0.709475,-1.92338
398.8,34.8354,0.704479,-1.92943
401.4,35.088,0.693155,-1.93468
404,35.3411,0.690874,-1.95044
406.6,35.5946,0.682293,-1.96133
409.2,35.8473,0.678571,-1.97127
411.8,36.1011,0.664641,-1.98353
414.4,36.3545,0.65248,-1.99508
417,36.6076,0.639549,-2.00287
419.6,36.8597,0.63351,-2.01483
422.2,37.1125,0.607174,-2.0262
424.8,37.3676,0.59121,-2.03756
427.4,37.6216,0.575992,-2.04803
430,37.8745,0.562344,-2.05494
432.6,38.1284,0.551923,-2.0658
435.2,38.382,0.543783,-2.07716
437.8,38.6361,0.548237,-2.08879
440.4,38.8919,0.552259,-2.09706
443,39.1434,0.550182,-2.10813
445.6,39.401,0.548632,-2.11664
448.2,39.6559,0.55646,-2.12824
450.8,39.9102,0.553612,-2.13632
453.4,40.1647,0.565069,-2.14328
456,40.4204,0.578218,-2.15441
458.6,40.6763,0.569719,-2.16046
461.2,40.9312,0.57729,-2.17426
463.8,41.1872,0.581146,-2.18238
466.4,41.4421,0.595511,-2.18945
469,41.6967,0.603661,-2.19795
471.6,41.9519,0.606654,-2.20582
474.2,42.209,0.6253,-2.21409
476.8,42.4642,0.631183,-2.22266
479.4,42.7205,0.648727,-2.23085
482,42.9766,0.660357,-2.23398
484.6,43.234,0.669998,-2.24232
487.2,43.4906,0.692476,-2.24929
489.8,43.7471,0.701203,-2.25639
492.4,44.0042,0.715994,-2.26235
495,44.2609,0.723907,-2.27017
497.6,44.5188,0.737541,-2.27716
500.2,44.7754,0.739336,-2.28082
502.8,45.0331,0.744841,-2.2849
505.4,45.2904,0.756781,-2.29236
508,45.5485,0.766891,-2.29994
510.6,45.8063,0.773543,-2.30542
513.2,46.0635,0.772519,-2.31032
515.8,46.3215,0.79257,-2.31498
518.4,46.5791,0.80146,-2.32089
521,46.8378,0.809854,-2.32815
523.6,47.0959,0.824766,-2.33123
526.2,47.3529,0.822674,-2.3384
528.8,47.6103,0.822532,-2.34183
531.4,47.8699,0.81663,-2.34736
534,48.1273,0.819634,-2.35308
536.6,48.3857,0.814373,-2.35705
539.2,48.6433,0.81051,-2.3624
541.8,48.9004,0.80983,-2.36778
544.4,49.1591,0.79607,-2.37372
547,49.4165,0.794965,-2.37766
549.6,49.6761,0.792421,-2.38063
552.2,49.934,0.783783,-2.38577
554.8,50.1929,0.779973,-2.38985
557.4,50.4511,0.781444,-2.39379
560,50.7108,0.774639,-2.39599
562.6,50.9695,0.778044,-2.40104
565.2,51.2284,0.767988,-2.4049
567.8,51.487,0.778565,-2.40874
570.4,51.7464,0.773407,-2.41005
573,52.0064,0.782709,-2.41631
575.6,52.2654,0.785239,-2.41894
578.2,52.523,0.790777,-2.42158
580.8,52.7842,0.78439,-2.42447
583.4,53.0449,0.786336,-2.42815
586,53.3051,0.780497,-2.43077
588.6,53.5647,0.772142,-2.43313
591.2,53.8242,0.775123,-2.43615
593.8,54.0831,0.771008,-2.43838
596.4,54.3433,0.783295,-2.44155
599,54.6041,0.787164,-2.44496
601.6,54.8639,0.78733,-2.44542
604.2,55.1224,0.789642,-2.45023
606.8,55.3835,0.786562,-2.45155
609.4,55.6441,0.800824,-2.45451
612,55.9037,0.803666,-2.45718
614.6,56.1623,0.81586,-2.45978
617.2,56.4222,0.820543,-2.46207
619.8,56.6834,0.829721,-2.46308
622.4,56.9422,0.835396,-2.46742
625,57.2044,0.850763,-2.46879
627.6,57.4666,0.842361,-2.47142
630.2,57.727,0.843866,-2.47406
632.8,57.9883,0.850335,-2.47603
635.4,58.2495,0.847013,-2.47735
638,58.5109,0.847097,-2.47998
640.6,58.7709,0.841565,-2.4813
643.2,59.0335,0.835085,-2.48525
645.8,59.2938,0.838643,-2.48657
648.4,59.5558,0.847483,-2.48823
651,59.8163,0.838425,-2.48855
653.6,60.0766,0.838762,-2.49251
656.2,60.3383,0.848555,-2.49245
658.8,60.5992,0.842663,-2.49569
661.4,60.8607,0.838095,-2.49777
664,61.1229,0.827261,-2.49908
666.6,61.3833,0.827223,-2.50172
669.2,61.6443,0.823166,-2.50376
671.8,61.9057,0.816381,-2.50699
674.4,62.1663,0.806601,-2.5083
677,62.4292,0.804854,-2.51226
679.6,62.6921,0.80435,-2.51367
682.2,62.9539,0.801876,-2.5149
684.8,63.2147,0.79824,-2.51753
687.4,63.477,0.793176,-2.52017
690,63.7394,0.788162,-2.52151
692.6,64.0009,0.787808,-2.52313
695.2,64.264,0.781867,-2.52476
697.8,64.527,0.760415,-2.52741
700.4,64.7893,0.755962,-2.53004
703,65.052,0.744688,-2.53103
705.6,65.3146,0.741669,-2.53366
708.2,65.5784,0.732893,-2.53498
710.8,65.8407,0.725137,-2.53624
713.4,66.1052,0.711653,-2.54034
716,66.3662,0.681322,-2.54047
718.6,66.6293,0.653924,-2.54411
721.2,66.8926,0.631406,-2.54674
723.8,67.154,0.612839,-2.54789
726.4,67.417,0.582017,-2.54936
729,67.6797,0.579268,-2.55134
731.6,67.9423,0.55791,-2.55331
734.2,68.2054,0.548288,-2.55531
736.8,68.4679,0.526949,-2.55792
739.4,68.7304,0.519455,-2.56167
742,68.994,0.500979,-2.56197
744.6,69.256,0.498871,-2.56463
747.2,69.5191,0.483227,-2.56594
749.8,69.7825,0.4769,-2.56792
752.4,70.0449,0.469762,-2.56911
755,70.3076,0.45836,-2.57055
757.6,70.5713,0.447056,-2.57319
760.2,70.8341,0.442935,-2.57426
762.8,71.0974,0.428273,-2.57838
765.4,71.361,0.415025,-2.58043
768,71.6254,0.388342,-2.58275
770.6,71.8893,0.369744,-2.58438
773.2,72.1505,0.344468,-2.58569
775.8,72.4149,0.339547,-2.58702
778.4,72.6787,0.33044,-2.58702
781,72.9421,0.319667,-2.58834
783.6,73.2056,0.316125,-2.58975
786.2,73.4686,0.314951,-2.59383
788.8,73.7322,0.301825,-2.59516
790,73.8527,0.298604,-2.59493