File: 01_Data/Helmet_Flap/STA/N2/10K_min/Helmet_Flap_STA_N2_10KData_250514_R1.csv
Temp./C,Time/min,DSC/(mW/mg),Mass loss/mg
40.0,0.0,0.941853,-0.135602
42.6,0.341302,1.0473,-0.138132
45.2,0.678049,1.15268,-0.142165
47.8,0.999427,1.26028,-0.144266
50.4,1.30489,1.36485,-0.147783
53,1.60588,1.44857,-0.152354
55.6,1.89792,1.53792,-0.156018
58.2,2.18746,1.61547,-0.160074
60.8,2.47045,1.68828,-0.165342
63.4,2.7458,1.75226,-0.17014
66,3.01728,1.78376,-0.173813
68.6,3.28801,1.81701,-0.17983
71.2,3.55506,1.82814,-0.184581
73.8,3.82181,1.83531,-0.18905
76.4,4.0848,1.81307,-0.194345
79,4.34321,1.79675,-0.198269
81.6,4.60685,1.76109,-0.203538
84.2,4.86659,1.71185,-0.20848
86.8,5.12265,1.66646,-0.211112
89.4,5.37842,1.60731,-0.213749
92,5.63257,1.5553,-0.217235
94.6,5.8855,1.48681,-0.21902
97.2,6.13416,1.4317,-0.22133
99.8,6.38774,1.36991,-0.22169
102.4,6.63862,1.31269,-0.224753
105,6.88674,1.26547,-0.22659
107.6,7.13285,1.21679,-0.22561
110.2,7.38549,1.17776,-0.227107
112.8,7.63361,1.14789,-0.22791
115.4,7.88317,1.12704,-0.22923
118,8.13258,1.10359,-0.22792
120.6,8.38185,1.09452,-0.228263
123.2,8.63015,1.08862,-0.22923
125.8,8.87762,1.07183,-0.22915
128.4,9.12463,1.05877,-0.23064
131,9.37247,1.05584,-0.229198
133.6,9.62191,1.07341,-0.230547
136.2,9.8683,1.0717,-0.22792
138.8,10.1155,1.0858,-0.230553
141.4,10.3583,1.10067,-0.230528
144,10.6067,1.10109,-0.230206
146.6,10.8519,1.12046,-0.230203
149.2,11.0977,1.11899,-0.23022
151.8,11.343,1.1276,-0.231531
154.4,11.5871,1.12926,-0.231875
157,11.8346,1.14175,-0.23154
159.6,12.0802,1.14904,-0.231507
162.2,12.3245,1.15804,-0.23252
164.8,12.5705,1.16267,-0.23285
167.4,12.8161,1.17705,-0.233216
170,13.0623,1.18413,-0.232858
172.6,13.3055,1.18724,-0.23318
175.2,13.5512,1.19477,-0.234159
177.8,13.798,1.20002,-0.2355
180.4,14.0434,1.20104,-0.23549
183,14.2868,1.20603,-0.236149
185.6,14.5324,1.20104,-0.2368
188.2,14.7762,1.20554,-0.2368
190.8,15.0203,1.2071,-0.23812
193.4,15.266,1.20176,-0.23878
196,15.5104,1.20326,-0.23878
198.6,15.7542,1.19373,-0.23977
201.2,15.998,1.19142,-0.240751
203.8,16.2433,1.20267,-0.24141
206.4,16.4883,1.19477,-0.243332
209,16.7325,1.18975,-0.245699
211.6,16.9762,1.18771,-0.24737
214.2,17.2208,1.18235,-0.248661
216.8,17.465,1.1694,-0.250959
219.4,17.7099,1.1551,-0.253229
222,17.9542,1.13395,-0.2569
224.6,18.1979,1.12514,-0.259842
227.2,18.4444,1.11509,-0.263825
229.8,18.6876,1.09414,-0.26777
232.4,18.9334,1.07369,-0.273045
235,19.179,1.07741,-0.276991
237.6,19.4248,1.07769,-0.282293
240.2,19.6693,1.08121,-0.288159
242.8,19.9152,1.07506,-0.293138
245.4,20.1603,1.0903,-0.299259
248,20.4046,1.11153,-0.305093
250.6,20.6529,1.16464,-0.312355
253.2,20.9024,1.44163,-0.318245
255.8,21.1508,1.6769,-0.324771
258.4,21.3935,1.35236,-0.330993
261,21.6398,1.29245,-0.339097
263.6,21.8839,1.13714,-0.343973
266.2,22.1278,1.0327,-0.351551
268.8,22.3733,0.993868,-0.359021
271.4,22.62,0.959391,-0.366417
274,22.8655,0.917181,-0.374154
276.6,23.1128,0.86243,-0.382828
279.2,23.3581,0.813008,-0.392379
281.8,23.6019,0.756686,-0.400759
284.4,23.8502,0.678379,-0.410855
287,24.0965,0.602562,-0.421352
289.6,24.3425,0.500915,-0.433864
292.2,24.5882,0.357654,-0.445483
294.8,24.8329,0.175296,-0.459047
297.4,25.0767,-0.0753151,-0.477123
300,25.32,-0.4353,-0.498439
302.6,25.562,-0.902969,-0.529387
305.2,25.8045,-1.36086,-0.57725
307.8,26.0502,-1.48004,-0.662838
310.4,26.3014,-1.11138,-0.782676
313,26.5553,-0.625266,-0.919916
315.6,26.8067,-0.285828,-1.05931
318.2,27.0563,-0.106414,-1.19527
320.8,27.3066,0.0173799,-1.32582
323.4,27.5566,0.152084,-1.43966
326,27.8081,0.356398,-1.52787
328.6,28.0595,0.560325,-1.57831
331.2,28.3109,0.692181,-1.61265
333.8,28.559,0.717086,-1.6304
336.4,28.8102,0.690395,-1.64029
339,29.0602,0.648086,-1.65236
341.6,29.3088,0.614643,-1.66065
344.2,29.5587,0.585037,-1.66799
346.8,29.8077,0.569122,-1.6781
349.4,30.0583,0.554091,-1.68633
352,30.3095,0.531576,-1.69402
354.6,30.5587,0.532667,-1.70474
357.2,30.8093,0.519284,-1.71097
359.8,31.0602,0.526259,-1.72064
362.4,31.3111,0.524676,-1.73005
365,31.5615,0.533079,-1.73924
367.6,31.8127,0.550837,-1.75024
370.2,32.0652,0.569531,-1.7595
372.8,32.3149,0.597815,-1.77194
375.4,32.5689,0.618478,-1.78344
378,32.8214,0.647447,-1.79433
380.6,33.0736,0.66976,-1.80604
383.2,33.3258,0.689973,-1.81849
385.8,33.5785,0.694054,-1.83097
388.4,33.8296,0.703552,-1.84214
391,34.0825,0.694058,-1.85466
393.6,34.3358,0.685071,-1.86565
396.2,34.5854,0.684162,-1.87535
398.8,34.8408,0.676991,-1.88593
401.4,35.0923,0.675617,-1.8962
404,35.3453,0.667634,-1.90672
406.6,35.5982,0.667554,-1.91644
409.2,35.8499,0.651979,-1.92529
411.8,36.1033,0.65045,-1.93659
414.4,36.3561,0.641089,-1.9458
417,36.6111,0.627485,-1.95459
419.6,36.8637,0.61711,-1.9647
422.2,37.1178,0.608499,-1.97592
424.8,37.3716,0.597673,-1.98469
427.4,37.6251,0.579771,-1.99642
430,37.8793,0.573948,-2.00548
432.6,38.1336,0.560394,-2.01415
435.2,38.3861,0.557334,-2.02581
437.8,38.6403,0.562872,-2.03627
440.4,38.8949,0.563249,-2.04547
443,39.1491,0.564189,-2.05526
445.6,39.403,0.58174,-2.06523
448.2,39.658,0.593465,-2.07403
450.8,39.9095,0.598182,-2.08324
453.4,40.1668,0.60606,-2.09385
456,40.4219,0.61366,-2.10248
458.6,40.6768,0.626153,-2.11278
461.2,40.9331,0.645979,-2.12076
463.8,41.1886,0.650505,-2.12837
466.4,41.4436,0.664242,-2.13748
469,41.6998,0.681409,-2.14598
471.6,41.9557,0.695654,-2.15384
474.2,42.2098,0.714397,-2.1605
476.8,42.4655,0.728213,-2.16898
479.4,42.7236,0.745684,-2.1782
482,42.9797,0.755482,-2.18218
484.6,43.2363,0.779388,-2.18917
487.2,43.4905,0.794542,-2.19582
489.8,43.7498,0.815071,-2.20072
492.4,44.0056,0.832437,-2.20859
495,44.263,0.851696,-2.21557
497.6,44.5199,0.866332,-2.21959
500.2,44.7762,0.88617,-2.22418
502.8,45.0334,0.906887,-2.23145
505.4,45.2897,0.935008,-2.23673
508,45.548,0.949316,-2.24207
510.6,45.8039,0.961785,-2.24801
513.2,46.0618,0.967648,-2.25333
515.8,46.3201,0.983965,-2.25731
518.4,46.5764,0.999691,-2.26295
521,46.8365,0.998178,-2.27084
523.6,47.0943,1.00542,-2.27481
526.2,47.3518,1.00334,-2.28007
528.8,47.6098,1.00602,-2.28486
531.4,47.8688,1.00275,-2.28996
534,48.1247,1.00818,-2.29522
536.6,48.3834,1.00537,-2.2992
539.2,48.6408,1.0131,-2.30514
541.8,48.8993,1.00043,-2.31072
544.4,49.157,0.998867,-2.31466
547,49.4151,0.991568,-2.31751
549.6,49.6739,0.982897,-2.32161
552.2,49.933,0.986275,-2.32662
554.8,50.1918,0.982138,-2.3319
557.4,50.4506,0.989417,-2.33486
560,50.7098,0.978028,-2.3384
562.6,50.9686,0.976243,-2.34211
565.2,51.2277,0.963089,-2.34607
567.8,51.4873,0.959159,-2.35002
570.4,51.7457,0.955283,-2.35364
573,52.003,0.942407,-2.35493
575.6,52.2635,0.946456,-2.35761
578.2,52.5228,0.935518,-2.36359
580.8,52.7828,0.928211,-2.36483
583.4,53.0416,0.92283,-2.36785
586,53.3007,0.937283,-2.37043
588.6,53.5607,0.933911,-2.37343
591.2,53.8208,0.933365,-2.37748
593.8,54.0816,0.923502,-2.37998
596.4,54.3411,0.919884,-2.38064
599,54.602,0.919338,-2.3838
601.6,54.8617,0.907637,-2.38624
604.2,55.1206,0.907023,-2.38995
606.8,55.3815,0.898696,-2.39252
609.4,55.6407,0.89244,-2.39283
612,55.9013,0.890405,-2.39507
614.6,56.1615,0.888817,-2.39751
617.2,56.4208,0.892327,-2.39905
619.8,56.6815,0.890445,-2.40304
622.4,56.9413,0.890355,-2.40668
625,57.2016,0.877017,-2.40716
627.6,57.4624,0.873102,-2.40962
630.2,57.7227,0.870338,-2.41193
632.8,57.9826,0.864872,-2.41336
635.4,58.2419,0.861583,-2.416
638,58.5037,0.864035,-2.41863
640.6,58.7639,0.86171,-2.41996
643.2,59.0254,0.848943,-2.42258
645.8,59.2857,0.844198,-2.42518
648.4,59.5462,0.811522,-2.4292
651,59.8071,0.800025,-2.42917
653.6,60.0677,0.774613,-2.43049
656.2,60.329,0.75164,-2.43411
658.8,60.5901,0.728454,-2.43575
661.4,60.8519,0.694573,-2.43705
664,61.1132,0.676855,-2.44036
666.6,61.3747,0.644066,-2.44039
669.2,61.6369,0.628065,-2.44165
671.8,61.898,0.600803,-2.44535
674.4,62.1602,0.580577,-2.44831
677,62.4193,0.563569,-2.44956
679.6,62.6811,0.539001,-2.45354
682.2,62.9411,0.512869,-2.45355
684.8,63.2022,0.504018,-2.45662
687.4,63.4637,0.479885,-2.45644
690,63.7246,0.474141,-2.45892
692.6,63.9866,0.462933,-2.46059
695.2,64.2483,0.438541,-2.46285
697.8,64.509,0.421894,-2.46419
700.4,64.7717,0.406109,-2.46681
703,65.0331,0.385024,-2.46979
705.6,65.2945,0.371412,-2.47291
708.2,65.556,0.344668,-2.47241
710.8,65.8175,0.327545,-2.47599
713.4,66.0793,0.299521,-2.47834
716,66.3406,0.271479,-2.48032
718.6,66.603,0.224794,-2.48359
721.2,66.8652,0.182768,-2.48494
723.8,67.1276,0.141361,-2.48724
726.4,67.3911,0.11959,-2.4896
729,67.6522,0.0900445,-2.49152
731.6,67.9134,0.0655366,-2.49416
734.2,68.1777,0.050116,-2.49624
736.8,68.4403,0.0236726,-2.49708
739.4,68.7027,0.00506756,-2.49894
742,68.9656,-0.0167448,-2.50133
744.6,69.2279,-0.0263044,-2.50337
747.2,69.4903,-0.0473906,-2.50502
749.8,69.7533,-0.0732637,-2.50668
752.4,70.0161,-0.0877658,-2.50799
755,70.2791,-0.091586,-2.50894
757.6,70.5419,-0.112746,-2.50998
760.2,70.8042,-0.131872,-2.5126
762.8,71.0667,-0.138795,-2.51392
765.4,71.3287,-0.144484,-2.51523
768,71.5908,-0.153304,-2.51656
770.6,71.8525,-0.168227,-2.51886
773.2,72.1154,-0.16888,-2.52018
775.8,72.3784,-0.165969,-2.52281
778.4,72.6422,-0.171248,-2.5238
781,72.9055,-0.158837,-2.52577
783.6,73.169,-0.153741,-2.52641
786.2,73.4335,-0.149325,-2.52776
788.8,73.6965,-0.144419,-2.5304
790,73.8171,-0.139625,-2.53038