File: 01_Data/Polycarbonate_Helmet_Shell/STA/N2/10K_min/Polycarbonate_Helmet_Shell_STA_N2_10KData_241008_R2.csv
Temp./C,Time/min,DSC/(mW/mg),Mass loss/mg
60.0,0.0,0.675873,0.00663245
62.5,0.279723,0.713872,0.00438918
65,0.551041,0.744214,0.00568978
67.5,0.81816,0.759778,0.00569802
70,1.08216,0.783916,0.00580981
72.5,1.34341,0.793557,0.00573921
75,1.60459,0.807621,0.00590932
77.5,1.86418,0.82034,0.00581027
80,2.1205,0.818701,0.00449999
82.5,2.37487,0.82157,0.00581733
85,2.62738,0.825321,0.00581582
87.5,2.88029,0.831054,0.00582158
90,3.13031,0.841503,0.00712472
92.5,3.37899,0.854617,0.00580959
95,3.62556,0.868543,0.0057837
97.5,3.87435,0.878448,0.00450011
100,4.12031,0.889347,0.00581038
102.5,4.36594,0.89203,0.00646864
105,4.61237,0.904757,0.00714039
107.5,4.85661,0.913888,0.00679386
110,5.10097,0.922482,0.0058051
112.5,5.34469,0.928136,0.00582245
115,5.58868,0.938132,0.0058103
117.5,5.83243,0.950639,0.00614
120,6.07447,0.955906,0.00721175
122.5,6.31778,0.962581,0.00573984
125,6.56058,0.975456,0.00712998
127.5,6.80203,0.989714,0.00614
130,7.04346,0.987021,0.00778986
132.5,7.28142,0.996142,0.00713005
135,7.52509,0.996575,0.00779008
137.5,7.76409,1.01043,0.00681
140,8.00451,1.0198,0.00812
142.5,8.24733,1.03304,0.00811988
145,8.48677,1.03811,0.00811999
147.5,8.72523,1.03161,0.00812
150,8.96664,1.04843,0.00739158
152.5,9.20533,1.05828,0.00842098
155,9.4448,1.06175,0.0081207
157.5,9.68352,1.06592,0.00844768
160,9.92226,1.07241,0.00810656
162.5,10.1593,1.08465,0.00812003
165,10.4,1.10156,0.00812146
167.5,10.6388,1.11578,0.00779
170,10.8783,1.13714,0.00845018
172.5,11.1177,1.17709,0.00843699
175,11.3559,1.21557,0.0098737
177.5,11.5951,1.21368,0.00845
180,11.8337,1.21698,0.00952347
182.5,12.0712,1.21203,0.00845182
185,12.3088,1.22487,0.00911001
187.5,12.5457,1.2313,0.00843754
190,12.7853,1.23595,0.0091
192.5,13.0233,1.23392,0.00976
195,13.2612,1.24438,0.00977281
197.5,13.4984,1.24627,0.00975199
200,13.7361,1.26468,0.00876569
202.5,13.9725,1.26078,0.00977
205,14.2122,1.27986,0.00844966
207.5,14.4493,1.27731,0.00844949
210,14.6868,1.28678,0.00977076
212.5,14.9243,1.29875,0.0100902
215,15.163,1.31501,0.0100901
217.5,15.4007,1.32792,0.0114106
220,15.6391,1.3328,0.0110509
222.5,15.876,1.32958,0.0100194
225,16.1133,1.33635,0.00977434
227.5,16.3511,1.34717,0.00943447
230,16.5892,1.34393,0.00944
232.5,16.8262,1.35046,0.01175
235,17.0637,1.35649,0.0129098
237.5,17.3015,1.35663,0.0130576
240,17.5393,1.35654,0.01174
242.5,17.7761,1.35899,0.0117507
245,18.0151,1.36553,0.0121096
247.5,18.2526,1.36291,0.0133877
250,18.4911,1.3595,0.0123992
252.5,18.7286,1.37215,0.0124646
255,18.966,1.37615,0.0124005
257.5,19.2037,1.37616,0.01339
260,19.4434,1.38141,0.012295
262.5,19.6814,1.3724,0.01339
265,19.9196,1.38359,0.0143836
267.5,20.1575,1.38756,0.0153594
270,20.3962,1.38684,0.0143757
272.5,20.6346,1.38966,0.0133912
275,20.8736,1.38559,0.0147101
277.5,21.1116,1.39213,0.0163723
280,21.3506,1.39617,0.01372
282.5,21.589,1.39693,0.0146514
285,21.8296,1.39786,0.0156953
287.5,22.0685,1.40377,0.0164543
290,22.3071,1.40647,0.0156902
292.5,22.5469,1.40658,0.01635
295,22.7862,1.40768,0.0162455
297.5,23.0248,1.40785,0.01635
300,23.2616,1.40787,0.01635
302.5,23.5027,1.40965,0.01668
305,23.7422,1.41347,0.0166448
307.5,23.9823,1.41476,0.0171767
310,24.2231,1.41421,0.018
312.5,24.4622,1.4172,0.018
315,24.7032,1.41302,0.01701
317.5,24.9418,1.41807,0.01701
320,25.1826,1.42005,0.01701
322.5,25.4235,1.42162,0.0179794
325,25.6631,1.41636,0.0166796
327.5,25.9034,1.42491,0.018
330,26.1442,1.43064,0.0169645
332.5,26.384,1.42381,0.0180001
335,26.6253,1.42584,0.01866
337.5,26.8662,1.42938,0.01899
340,27.1078,1.43551,0.0193202
342.5,27.349,1.43369,0.0193199
345,27.5909,1.43769,0.01932
347.5,27.8321,1.44686,0.018
350,28.073,1.44371,0.01833
352.5,28.3158,1.44793,0.01701
355,28.5569,1.45222,0.0183252
357.5,28.7981,1.45396,0.01833
360,29.0408,1.45161,0.01767
362.5,29.2832,1.45199,0.01833
365,29.5246,1.45528,0.01767
367.5,29.7673,1.4579,0.018
370,30.0101,1.4521,0.01866
372.5,30.253,1.4491,0.0180407
375,30.4944,1.44757,0.0166787
377.5,30.7378,1.44592,0.018
380,30.9804,1.44641,0.0157
382.5,31.2231,1.44561,0.0179921
385,31.4665,1.44896,0.01734
387.5,31.7096,1.44425,0.0170128
390,31.9511,1.43361,0.0186602
392.5,32.1961,1.43362,0.0177355
395,32.4402,1.41644,0.01734
397.5,32.6841,1.40548,0.01734
400,32.9284,1.38923,0.0160456
402.5,33.172,1.38047,0.01603
405,33.4168,1.37764,0.0160301
407.5,33.6612,1.37081,0.0147674
410,33.903,1.37246,0.0144723
412.5,34.1484,1.37177,0.01306
415,34.3937,1.36,0.013186
417.5,34.6367,1.35452,0.0130695
420,34.8811,1.35525,0.01306
422.5,35.1265,1.3516,0.0107496
425,35.3706,1.3411,0.00911122
427.5,35.614,1.33818,0.00802608
430,35.8587,1.34372,0.00779258
432.5,36.1038,1.32714,0.00482129
435,36.3486,1.3335,0.00265964
437.5,36.5945,1.34298,-0.0011
440,36.8393,1.32203,-0.00504537
442.5,37.0832,1.31511,-0.00793032
445,37.3303,1.31062,-0.0116401
447.5,37.574,1.30341,-0.0155849
450,37.82,1.29784,-0.021727
452.5,38.0661,1.29027,-0.0263254
455,38.3119,1.28551,-0.0336241
457.5,38.5574,1.28096,-0.0415199
460,38.8039,1.27255,-0.0500558
462.5,39.0492,1.27356,-0.0603425
465,39.2963,1.27371,-0.0733482
467.5,39.5421,1.28066,-0.0852486
470,39.7901,1.27407,-0.100614
472.5,40.0369,1.27789,-0.11779
475,40.2845,1.28295,-0.13658
477.5,40.5313,1.29208,-0.158058
480,40.7786,1.28973,-0.183447
482.5,41.0271,1.29756,-0.215746
485,41.2737,1.30803,-0.249608
487.5,41.5211,1.32232,-0.288655
490,41.7682,1.32314,-0.333833
492.5,42.0131,1.3586,-0.388557
495,42.2616,1.37094,-0.451694
497.5,42.5092,1.37631,-0.521539
500,42.7566,1.40926,-0.6051
502.5,43.0052,1.43282,-0.699075
505,43.253,1.47174,-0.805193
507.5,43.5019,1.50426,-0.920874
510,43.7498,1.544,-1.04723
512.5,43.9986,1.60032,-1.17645
515,44.2472,1.61854,-1.30465
517.5,44.4935,1.45563,-1.42423
520,44.7395,1.16433,-1.5346
522.5,44.983,0.846822,-1.63332
525,45.226,0.566619,-1.71944
527.5,45.4728,0.338499,-1.79283
530,45.7202,0.170962,-1.85375
532.5,45.9674,0.0895744,-1.90314
535,46.2134,0.0552724,-1.94234
537.5,46.4634,0.0401329,-1.97607
540,46.7128,0.0536288,-2.00173
542.5,46.9624,0.0781928,-2.02601
545,47.2121,0.0956482,-2.04603
547.5,47.4622,0.129789,-2.06338
550,47.7121,0.14229,-2.07781
552.5,47.9626,0.156148,-2.09106
555,48.2125,0.179896,-2.1036
557.5,48.4624,0.199393,-2.11685
560,48.7121,0.211923,-2.12654
562.5,48.9622,0.226246,-2.13877
565,49.212,0.230712,-2.14816
567.5,49.4623,0.244611,-2.15885
570,49.7122,0.245801,-2.16641
572.5,49.9625,0.256077,-2.17862
575,50.2123,0.267523,-2.18936
577.5,50.4624,0.28337,-2.20059
580,50.7126,0.306464,-2.21016
582.5,50.9623,0.322351,-2.21916
585,51.2124,0.333195,-2.22742
587.5,51.4622,0.357635,-2.23735
590,51.7135,0.372686,-2.24736
592.5,51.9643,0.38898,-2.25644
595,52.2142,0.401252,-2.26488
597.5,52.4649,0.431206,-2.27554
600,52.7161,0.443518,-2.28514
602.5,52.9678,0.449387,-2.29514
605,53.2189,0.473169,-2.3038
607.5,53.4715,0.485632,-2.31235
610,53.7225,0.494757,-2.32185
612.5,53.9747,0.516917,-2.32907
615,54.2257,0.535335,-2.33749
617.5,54.4761,0.550888,-2.34439
620,54.7274,0.560814,-2.35151
622.5,54.9779,0.588198,-2.35702
625,55.2297,0.608267,-2.36389
627.5,55.4796,0.62863,-2.37149
630,55.7315,0.645806,-2.37561
632.5,55.9827,0.664627,-2.38236
635,56.2342,0.682793,-2.38898
637.5,56.4855,0.701212,-2.39571
640,56.7362,0.697916,-2.40056
642.5,56.9869,0.713831,-2.40289
645,57.2387,0.720226,-2.40881
647.5,57.4895,0.720162,-2.41435
650,57.7408,0.731655,-2.41829
652.5,57.992,0.728613,-2.42237
655,58.2436,0.719824,-2.42763
657.5,58.4947,0.695953,-2.42895
660,58.7464,0.678001,-2.4341
662.5,58.9971,0.656097,-2.43631
665,59.249,0.63729,-2.44092
667.5,59.5013,0.621149,-2.44355
670,59.7513,0.599052,-2.44619
672.5,60.0037,0.586624,-2.44882
675,60.2555,0.575427,-2.45277
677.5,60.5087,0.563332,-2.4567
680,60.7585,0.544907,-2.45903
682.5,61.0134,0.524804,-2.46329
685,61.2654,0.504345,-2.46398
687.5,61.5193,0.493035,-2.46585
690,61.7725,0.479776,-2.46792
692.5,62.0253,0.46257,-2.4705
695,62.2776,0.45144,-2.47385
697.5,62.5298,0.43886,-2.47517
700,62.7822,0.422487,-2.4766
702.5,63.0345,0.398827,-2.47912
705,63.286,0.392763,-2.48181
707.5,63.5388,0.377382,-2.48536
710,63.7894,0.355748,-2.48661
712.5,64.0441,0.343152,-2.4873
715,64.2956,0.321883,-2.49064
717.5,64.5478,0.295571,-2.49065
720,64.8007,0.282091,-2.49329
722.5,65.0537,0.262662,-2.49592
725,65.3057,0.245792,-2.49592
727.5,65.5593,0.229385,-2.49987
730,65.8139,0.22548,-2.49888
732.5,66.0666,0.194142,-2.50151
735,66.3195,0.165858,-2.50123
737.5,66.5734,0.146595,-2.50251
740,66.8266,0.123849,-2.50514
742.5,67.0808,0.10185,-2.50582
745,67.3351,0.0942762,-2.50645
747.5,67.5884,0.0753412,-2.50777
750,67.8422,0.0485046,-2.5091
752.5,68.0953,0.024148,-2.51173
755,68.3482,0.0155563,-2.51172
757.5,68.6019,-0.00256855,-2.51404
760,68.8554,0.00388241,-2.51437
762.5,69.1102,-0.000714201,-2.51437
765,69.3643,-0.0120751,-2.51466
767.5,69.6182,-0.0243253,-2.51569
770,69.8731,-0.0576401,-2.51969
772.5,70.1275,-0.0768526,-2.51831
775,70.3807,-0.0880685,-2.51963
777.5,70.6358,-0.0921078,-2.51963
780,70.8883,-0.0909085,-2.52094
782.5,71.1429,-0.110652,-2.52303
785,71.3971,-0.110517,-2.52259
787.5,71.6513,-0.113091,-2.52488
790,71.9045,-0.109089,-2.52444