File: 01_Data/Neoprene_SCBA_Face_Seal/STA/N2/30K_min/Neoprene_SCBA_Face_Seal_STA_N2_30KData_250911_R1.csv
Temp./C,Time/min,DSC/(mW/mg),Mass loss/mg
40.0,0.0,-1.1642,0.0167599
42.6,0.162512,-1.40122,0.0171909
45.2,0.309693,-1.59545,0.0169453
47.8,0.445293,-1.7519,0.0167513
50.4,0.573805,-1.87704,0.0196899
53,0.695466,-1.975,0.0193888
55.6,0.812577,-2.02536,0.0193853
58.2,0.925149,-1.99352,0.0203261
60.8,1.03635,-2.07929,0.0205958
63.4,1.14448,-2.12574,0.0179545
66,1.24958,-2.09667,0.0190828
68.6,1.35383,-2.07163,0.0199427
71.2,1.45642,-2.07561,0.0205704
73.8,1.55812,-2.10066,0.0184152
76.4,1.65873,-2.14804,0.0190072
79,1.75782,-2.20521,0.0198477
81.6,1.85647,-2.30836,0.0176274
84.2,1.95314,-2.33556,0.0185146
86.8,2.0517,-2.76741,0.0194358
89.4,2.14625,-2.73153,0.0192939
92,2.23732,-2.17405,0.0181648
94.6,2.32862,-1.74533,0.0190859
97.2,2.41725,-1.1342,0.0177763
99.8,2.50538,-0.426432,0.0184679
102.4,2.59211,0.481872,0.0178425
105,2.67851,1.17351,0.0164296
107.6,2.7645,1.93097,0.0164451
110.2,2.8497,2.70686,0.0164091
112.8,2.93455,3.44086,0.0151705
115.4,3.01896,4.18602,0.0151267
118,3.10398,4.74901,0.0139084
120.6,3.18958,5.20624,0.0147893
123.2,3.27457,5.55081,0.0146003
125.8,3.35892,5.83554,0.013831
128.4,3.44353,6.10801,0.01383
131,3.52782,6.35305,0.0149302
133.6,3.61143,6.57861,0.0138197
136.2,3.69472,6.79565,0.0125067
138.8,3.77798,6.99546,0.0138339
141.4,3.85961,7.1545,0.0135069
144,3.94251,7.33016,0.0135499
146.6,4.02425,7.49923,0.01317
149.2,4.10594,7.66765,0.0131699
151.8,4.18732,7.81365,0.0122052
154.4,4.26834,7.94176,0.0121811
157,4.34942,8.06885,0.0128397
159.6,4.42998,8.21413,0.0111886
162.2,4.51068,8.35245,0.01119
164.8,4.59072,8.51771,0.01119
167.4,4.67091,8.73786,0.0111909
170,4.75079,8.85716,0.0102023
172.6,4.8309,8.96288,0.00853936
175.2,4.91021,9.11522,0.00823512
177.8,4.98853,9.23436,0.00723999
180.4,5.06863,9.40692,0.00724687
183,5.14763,9.61595,0.0057112
185.6,5.22614,9.69452,0.0059183
188.2,5.30436,9.75657,0.00394045
190.8,5.38346,9.80656,0.00261204
193.4,5.46202,9.85806,0.00118892
196,5.54042,9.9099,-0.000682524
198.6,5.61867,9.97151,-0.00253381
201.2,5.69641,10.0217,-0.0035617
203.8,5.77471,10.0697,-0.00582449
206.4,5.85232,10.0948,-0.00836869
209,5.93015,10.1311,-0.0122881
211.6,6.00829,10.1407,-0.0157798
214.2,6.08558,10.1764,-0.0189332
216.8,6.16313,10.2294,-0.0234683
219.4,6.24042,10.2552,-0.0280112
222,6.3178,10.2932,-0.0318782
224.6,6.3951,10.3225,-0.0378967
227.2,6.47236,10.3507,-0.0428636
229.8,6.54961,10.3647,-0.0466261
232.4,6.62701,10.3629,-0.0529897
235,6.70368,10.3423,-0.0606513
237.6,6.7817,10.3376,-0.0672014
240.2,6.85856,10.3099,-0.0761261
242.8,6.93577,10.2373,-0.082161
245.4,7.0133,10.2037,-0.09112
248,7.09024,10.1517,-0.0996758
250.6,7.16748,10.0694,-0.107071
253.2,7.24465,9.95629,-0.116692
255.8,7.32186,9.79307,-0.125649
258.4,7.39935,9.6617,-0.135298
261,7.47672,9.50771,-0.144272
263.6,7.55427,9.33872,-0.153542
266.2,7.63159,9.14228,-0.1658
268.8,7.70939,8.9039,-0.174886
271.4,7.78734,8.63166,-0.184753
274,7.86527,8.31819,-0.192616
276.6,7.94361,7.97001,-0.202263
279.2,8.02146,7.5476,-0.211191
281.8,8.10021,7.1075,-0.218333
284.4,8.17893,6.6023,-0.226614
287,8.2585,5.84486,-0.234461
289.6,8.33814,5.04058,-0.241825
292.2,8.41808,4.24491,-0.248823
294.8,8.49822,3.46413,-0.255153
297.4,8.57801,2.79213,-0.26117
300,8.65705,2.32561,-0.266343
302.6,8.73545,2.06866,-0.271238
305.2,8.81319,1.91596,-0.277681
307.8,8.89108,1.86214,-0.282781
310.4,8.96893,1.84123,-0.289005
313,9.04582,1.85457,-0.295314
315.6,9.12362,1.82374,-0.301757
318.2,9.20114,1.79812,-0.307867
320.8,9.27892,1.74359,-0.31212
323.4,9.35646,1.71435,-0.317368
326,9.43488,1.39294,-0.323807
328.6,9.51332,1.15794,-0.330024
331.2,9.5915,1.10183,-0.335005
333.8,9.66894,1.1558,-0.342919
336.4,9.74676,1.12641,-0.350107
339,9.82396,1.14559,-0.357347
341.6,9.90201,1.22018,-0.366747
344.2,9.97998,1.30382,-0.376408
346.8,10.0578,1.41748,-0.386786
349.4,10.1356,1.56201,-0.397715
352,10.2134,1.69806,-0.409439
354.6,10.2914,1.86637,-0.423751
357.2,10.3691,2.05282,-0.439217
359.8,10.4473,2.25168,-0.45808
362.4,10.5254,2.47298,-0.479273
365,10.6034,2.7067,-0.502528
367.6,10.6817,2.92909,-0.529595
370.2,10.76,3.15843,-0.560817
372.8,10.838,3.39571,-0.596992
375.4,10.9165,3.58886,-0.637758
378,10.9948,3.74009,-0.685152
380.6,11.074,3.85751,-0.739001
383.2,11.153,3.92836,-0.79852
385.8,11.2319,3.92752,-0.86617
388.4,11.3114,3.87856,-0.938962
391,11.3913,3.77957,-1.02255
393.6,11.4712,3.65699,-1.11286
396.2,11.5511,3.48487,-1.2067
398.8,11.6317,3.17133,-1.30488
401.4,11.7119,3.04442,-1.40491
404,11.7918,2.92017,-1.50394
406.6,11.8721,2.8121,-1.59759
409.2,11.9521,2.70349,-1.68451
411.8,12.0327,2.61623,-1.76537
414.4,12.1125,2.5443,-1.83827
417,12.1923,2.46623,-1.90075
419.6,12.2726,2.40536,-1.95923
422.2,12.3531,2.35498,-2.01815
424.8,12.4335,2.30481,-2.07791
427.4,12.5133,2.24222,-2.12797
430,12.5939,2.16587,-2.1727
432.6,12.6748,2.08397,-2.21477
435.2,12.7551,2.01495,-2.25299
437.8,12.8359,1.93939,-2.29265
440.4,12.916,1.86954,-2.32974
443,12.9971,1.78457,-2.3663
445.6,13.0783,1.70535,-2.40423
448.2,13.159,1.61957,-2.44076
450.8,13.2399,1.54828,-2.47861
453.4,13.3209,1.4774,-2.51725
456,13.4024,1.41008,-2.55688
458.6,13.4833,1.31794,-2.59604
461.2,13.5647,1.23373,-2.63565
463.8,13.6461,1.14959,-2.6758
466.4,13.7276,1.07055,-2.7173
469,13.8092,1.00376,-2.75994
471.6,13.891,0.941643,-2.80294
474.2,13.9726,0.917793,-2.84722
476.8,14.0544,0.891132,-2.89064
479.4,14.1363,0.90613,-2.93293
482,14.2179,0.916219,-2.97753
484.6,14.3001,0.978847,-3.0185
487.2,14.3814,1.05223,-3.05834
489.8,14.4634,1.16259,-3.09578
492.4,14.5453,1.31751,-3.13014
495,14.6265,1.5152,-3.15964
497.6,14.7076,1.74291,-3.18523
500.2,14.7894,1.96932,-3.20495
502.8,14.8712,2.1867,-3.21615
505.4,14.9526,2.36037,-3.22716
508,15.035,2.48982,-3.23454
510.6,15.1171,2.59092,-3.23815
513.2,15.1996,2.66346,-3.24236
515.8,15.2821,2.71488,-3.24289
518.4,15.3648,2.75876,-3.24551
521,15.4475,2.77783,-3.24683
523.6,15.5298,2.81554,-3.2465
526.2,15.6129,2.82868,-3.24782
528.8,15.6956,2.84315,-3.24903
531.4,15.7784,2.85012,-3.25045
534,15.8616,2.86038,-3.25041
536.6,15.9444,2.86019,-3.25078
539.2,16.0276,2.86432,-3.25079
541.8,16.1106,2.87125,-3.2521
544.4,16.1938,2.86582,-3.25211
547,16.2765,2.85237,-3.25209
549.6,16.3605,2.84123,-3.25209
552.2,16.4434,2.85124,-3.25342
554.8,16.5266,2.84879,-3.25341
557.4,16.6101,2.84356,-3.25341
560,16.6936,2.84415,-3.25341
562.6,16.7769,2.83066,-3.25473
565.2,16.8605,2.8479,-3.25473
567.8,16.9437,2.84233,-3.25471
570.4,17.0271,2.83925,-3.25604
573,17.1106,2.84486,-3.25605
575.6,17.1944,2.84891,-3.25542
578.2,17.2778,2.848,-3.25592
580.8,17.3619,2.84563,-3.25595
583.4,17.4461,2.84249,-3.25611
586,17.5296,2.83369,-3.25473
588.6,17.613,2.8336,-3.25572
591.2,17.6977,2.83284,-3.25605
593.8,17.782,2.8238,-3.25473
596.4,17.8662,2.81577,-3.25473
599,17.9504,2.82475,-3.25605
601.6,18.0347,2.82795,-3.25605
604.2,18.1194,2.82229,-3.25605
606.8,18.2035,2.82538,-3.25597
609.4,18.2881,2.82357,-3.2568
612,18.3728,2.82076,-3.2576
614.6,18.4567,2.81824,-3.25736
617.2,18.5417,2.82355,-3.25736
619.8,18.6266,2.82827,-3.25736
622.4,18.7111,2.82514,-3.2574
625,18.796,2.83738,-3.25799
627.6,18.8809,2.83395,-3.25737
630.2,18.9657,2.84468,-3.25736
632.8,19.0506,2.84768,-3.25869
635.4,19.1357,2.85416,-3.25869
638,19.2204,2.86502,-3.25903
640.6,19.3054,2.86221,-3.25803
643.2,19.3904,2.86419,-3.25868
645.8,19.4755,2.87589,-3.25868
648.4,19.5605,2.87111,-3.25869
651,19.6456,2.8785,-3.25901
653.6,19.7307,2.8956,-3.25967
656.2,19.8157,2.9102,-3.26
658.8,19.9008,2.91527,-3.26035
661.4,19.986,2.92978,-3.26133
664,20.0711,2.93453,-3.26033
666.6,20.1567,2.94011,-3.26033
669.2,20.2418,2.9635,-3.26044
671.8,20.3269,2.96146,-3.26131
674.4,20.4123,2.96682,-3.26099
677,20.4978,2.99477,-3.26099
679.6,20.5831,3.02092,-3.26132
682.2,20.6684,3.02445,-3.26132
684.8,20.7538,3.02771,-3.26264
687.4,20.8393,3.02716,-3.26259
690,20.9249,3.03417,-3.26264
692.6,21.0104,3.03543,-3.26264
695.2,21.0957,3.05795,-3.26396
697.8,21.1817,3.06741,-3.26395
700.4,21.2667,3.07345,-3.26296
703,21.3527,3.06143,-3.26527
705.6,21.4383,3.06861,-3.26397
708.2,21.5239,3.07971,-3.26397
710.8,21.6099,3.09311,-3.26396
713.4,21.6956,3.10734,-3.26396
716,21.7814,3.11688,-3.26517
718.6,21.8672,3.12405,-3.2641
721.2,21.9532,3.12823,-3.26527
723.8,22.0391,3.14954,-3.26396
726.4,22.1252,3.14916,-3.26527
729,22.2113,3.14118,-3.26527
731.6,22.2971,3.15502,-3.26527
734.2,22.3835,3.17763,-3.26658
736.8,22.4694,3.17568,-3.26527
739.4,22.5558,3.17787,-3.26659
742,22.6419,3.18012,-3.26723
744.6,22.7282,3.18345,-3.2679
747.2,22.8143,3.19857,-3.26665
749.8,22.9006,3.1935,-3.26635
752.4,22.9869,3.19216,-3.26661
755,23.0728,3.2017,-3.26822
757.6,23.1594,3.20691,-3.26948
760.2,23.2459,3.21827,-3.27022
762.8,23.3323,3.22281,-3.2689
765.4,23.4188,3.23767,-3.27021
768,23.505,3.24759,-3.26874
770.6,23.5913,3.25284,-3.27021
773.2,23.6775,3.26841,-3.27021
775.8,23.7639,3.27132,-3.27054
778.4,23.8499,3.2822,-3.27151
781,23.9368,3.29106,-3.27055
783.6,24.0232,3.30305,-3.27153
786.2,24.1093,3.32538,-3.27153
788.8,24.1962,3.32877,-3.27016
790,24.2363,3.34404,-3.27151