File: 01_Data/Neoprene_SCBA_Face_Seal/STA/N2/30K_min/Neoprene_SCBA_Face_Seal_STA_N2_30KData_250912_R2.csv
Temp./C,Time/min,DSC/(mW/mg),Mass loss/mg
40.0,0.0,1.4941,0.00226027
42.6,0.160795,1.78273,0.00263697
45.2,0.306211,2.03597,0.00270783
47.8,0.440195,2.24266,0.000460056
50.4,0.56745,2.4271,0.0004297
53,0.688885,2.59232,0.00135452
55.6,0.80672,2.76107,0.000988447
58.2,0.920318,2.96933,0.000556638
60.8,1.03169,3.15806,-0.0003329
63.4,1.13899,3.22468,0.000603048
66,1.24446,3.26795,-0.000689201
68.6,1.34814,3.33841,-0.000617767
71.2,1.45115,3.41515,-0.000591189
73.8,1.55272,3.50036,-0.000809635
76.4,1.65326,3.59361,-0.00241776
79,1.75211,3.67195,-0.00245605
81.6,1.85069,3.7593,-0.00392342
84.2,1.94704,3.83146,-0.00419931
86.8,2.0437,3.89698,-0.00511418
89.4,2.13795,3.9556,-0.00502539
92,2.23159,4.03009,-0.00602716
94.6,2.32497,4.08654,-0.00467477
97.2,2.41702,4.1468,-0.00600859
99.8,2.50761,4.19863,-0.00582825
102.4,2.5978,4.2232,-0.00640178
105,2.68831,4.24071,-0.006195
107.6,2.77781,4.24927,-0.00625199
110.2,2.86687,4.26636,-0.00621582
112.8,2.95559,4.28749,-0.00755907
115.4,3.04366,4.30686,-0.00758032
118,3.13186,4.33715,-0.00719959
120.6,3.21903,4.37087,-0.00772448
123.2,3.30566,4.39258,-0.00761133
125.8,3.39204,4.42868,-0.00886578
128.4,3.47786,4.46277,-0.00757275
131,3.56324,4.49701,-0.00754663
133.6,3.64841,4.52073,-0.00889546
136.2,3.73215,4.55749,-0.00889
138.8,3.81607,4.59523,-0.00889427
141.4,3.89967,4.62412,-0.00889006
144,3.98261,4.6612,-0.00841516
146.6,4.06429,4.6967,-0.00758
149.2,4.14762,4.73969,-0.00758
151.8,4.22915,4.76714,-0.00771825
154.4,4.31162,4.80018,-0.00886775
157,4.39265,4.83781,-0.00889
159.6,4.47419,4.86171,-0.00888996
162.2,4.55504,4.88749,-0.00758023
164.8,4.63605,4.91302,-0.00758343
167.4,4.71686,4.94248,-0.00889019
170,4.79732,4.96682,-0.00925261
172.6,4.87701,5.00128,-0.00922
175.2,4.95755,5.02193,-0.00922
177.8,5.0378,5.05073,-0.00921982
180.4,5.11741,5.06385,-0.010527
183,5.19705,5.08885,-0.0105399
185.6,5.27615,5.1121,-0.00916248
188.2,5.35495,5.14341,-0.00922006
190.8,5.43412,5.16245,-0.0118646
193.4,5.51287,5.19856,-0.0107388
196,5.59097,5.21741,-0.0134717
198.6,5.66952,5.24417,-0.01449
201.2,5.74759,5.27827,-0.0145511
203.8,5.82597,5.31606,-0.0135358
206.4,5.90383,5.3502,-0.0144883
209,5.98159,5.36449,-0.0158053
211.6,6.05969,5.39709,-0.0171257
214.2,6.13773,5.41476,-0.018439
216.8,6.21497,5.44797,-0.0184376
219.4,6.29217,5.46667,-0.0211295
222,6.37068,5.49941,-0.0197741
224.6,6.44811,5.51485,-0.0210979
227.2,6.5252,5.54115,-0.0237223
229.8,6.60216,5.55596,-0.0267241
232.4,6.67975,5.58093,-0.028251
235,6.75716,5.59637,-0.0308061
237.6,6.8342,5.6111,-0.0333829
240.2,6.91118,5.63349,-0.0346964
242.8,6.98855,5.64106,-0.0376044
245.4,7.06565,5.65311,-0.0424345
248,7.14246,5.67335,-0.0451898
250.6,7.21957,5.68355,-0.0481779
253.2,7.29657,5.69008,-0.0549524
255.8,7.37332,5.70744,-0.0590163
258.4,7.45005,5.71929,-0.0631232
261,7.52715,5.72918,-0.0659958
263.6,7.60413,5.73068,-0.0727306
266.2,7.68056,5.72142,-0.0791722
268.8,7.75773,5.73829,-0.0840622
271.4,7.83453,5.73987,-0.0907574
274,7.91146,5.73571,-0.0967987
276.6,7.98832,5.72694,-0.103475
279.2,8.06518,5.72473,-0.10951
281.8,8.14256,5.71991,-0.118867
284.4,8.21907,5.72376,-0.1282
287,8.29614,5.72246,-0.137022
289.6,8.37295,5.70561,-0.145267
292.2,8.45005,5.67838,-0.153845
294.8,8.52695,5.66846,-0.164721
297.4,8.60409,5.64562,-0.173924
300,8.68094,5.61003,-0.184816
302.6,8.75781,5.58936,-0.194008
305.2,8.835,5.56205,-0.203875
307.8,8.91222,5.52423,-0.213874
310.4,8.98893,5.49625,-0.226547
313,9.06574,5.46038,-0.236935
315.6,9.14328,5.41546,-0.247663
318.2,9.21963,5.35578,-0.257304
320.8,9.29728,5.29051,-0.268026
323.4,9.37449,5.21879,-0.276509
326,9.45151,5.16884,-0.286705
328.6,9.52875,5.1041,-0.297373
331.2,9.60582,5.03595,-0.305725
333.8,9.68335,4.94813,-0.314871
336.4,9.76052,4.87399,-0.325571
339,9.83773,4.78045,-0.334026
341.6,9.91476,4.66694,-0.344813
344.2,9.99258,4.54563,-0.355013
346.8,10.0699,4.40708,-0.366202
349.4,10.1475,4.26016,-0.378332
352,10.2251,4.09813,-0.392317
354.6,10.3027,3.92131,-0.404799
357.2,10.38,3.71124,-0.420697
359.8,10.4574,3.49668,-0.435726
362.4,10.5347,3.26976,-0.454157
365,10.6128,3.02589,-0.477286
367.6,10.6899,2.76989,-0.501516
370.2,10.7677,2.51558,-0.530015
372.8,10.8456,2.27099,-0.562269
375.4,10.9231,2.07017,-0.598794
378,11.0013,1.85575,-0.642395
380.6,11.0794,1.696,-0.689673
383.2,11.1579,1.58344,-0.745594
385.8,11.2361,1.53867,-0.809246
388.4,11.3151,1.5541,-0.877267
391,11.3945,1.61428,-0.954461
393.6,11.4739,1.72629,-1.03857
396.2,11.5535,1.87272,-1.12766
398.8,11.6333,2.05915,-1.22169
401.4,11.7133,2.25228,-1.31582
404,11.794,2.43979,-1.41305
406.6,11.8741,2.62122,-1.50206
409.2,11.9541,2.76855,-1.5916
411.8,12.0343,2.89405,-1.67427
414.4,12.1146,2.97937,-1.75309
417,12.1939,3.06228,-1.82343
419.6,12.275,3.1117,-1.88878
422.2,12.3555,3.16163,-1.94858
424.8,12.4361,3.1946,-2.00439
427.4,12.5157,3.21776,-2.05643
430,12.5969,3.25104,-2.10328
432.6,12.6777,3.2686,-2.14718
435.2,12.758,3.31333,-2.18876
437.8,12.8392,3.35406,-2.22968
440.4,12.9201,3.39563,-2.26727
443,13.0011,3.44442,-2.3063
445.6,13.0822,3.49157,-2.34284
448.2,13.1633,3.54334,-2.38068
450.8,13.2443,3.60854,-2.41808
453.4,13.3256,3.6713,-2.45726
456,13.4069,3.74391,-2.49734
458.6,13.4886,3.80354,-2.53667
461.2,13.5698,3.85187,-2.57754
463.8,13.6513,3.90554,-2.6162
466.4,13.7325,3.94972,-2.66
469,13.8143,3.9951,-2.70311
471.6,13.8962,4.02177,-2.7489
474.2,13.9775,4.02475,-2.79159
476.8,14.059,4.01773,-2.83551
479.4,14.1405,3.98957,-2.88115
482,14.2221,3.93181,-2.92564
484.6,14.3035,3.86657,-2.96894
487.2,14.3852,3.76023,-3.01106
489.8,14.4656,3.63168,-3.04914
492.4,14.5476,3.46186,-3.08716
495,14.6287,3.25833,-3.12086
497.6,14.7096,3.00606,-3.14767
500.2,14.791,2.72653,-3.17333
502.8,14.8719,2.45393,-3.19103
505.4,14.9533,2.19834,-3.20488
508,15.0346,1.97853,-3.21628
510.6,15.1157,1.80901,-3.22207
513.2,15.1983,1.68497,-3.22407
515.8,15.2803,1.59317,-3.22762
518.4,15.3624,1.54047,-3.22997
521,15.4449,1.47798,-3.23058
523.6,15.5274,1.44076,-3.23189
526.2,15.6101,1.42224,-3.23321
528.8,15.6925,1.39801,-3.23453
531.4,15.7749,1.36682,-3.23585
534,15.8582,1.35813,-3.23717
536.6,15.9408,1.33931,-3.23574
539.2,16.0239,1.33018,-3.23716
541.8,16.1064,1.30982,-3.23717
544.4,16.1899,1.29893,-3.23848
547,16.2729,1.28379,-3.23716
549.6,16.3558,1.26749,-3.23716
552.2,16.4393,1.25135,-3.23848
554.8,16.5224,1.23948,-3.23743
557.4,16.6053,1.21763,-3.23881
560,16.6889,1.21067,-3.23852
562.6,16.7723,1.2071,-3.2398
565.2,16.8558,1.19538,-3.24079
567.8,16.9392,1.18586,-3.2408
570.4,17.023,1.17813,-3.24112
573,17.1066,1.16348,-3.24112
575.6,17.1902,1.15949,-3.24145
578.2,17.2741,1.161,-3.24145
580.8,17.3579,1.1522,-3.24109
583.4,17.4419,1.14872,-3.24243
586,17.5258,1.12622,-3.24111
588.6,17.61,1.12144,-3.24241
591.2,17.6941,1.11217,-3.24242
593.8,17.7784,1.09499,-3.24175
596.4,17.8626,1.08843,-3.24178
599,17.9461,1.07287,-3.24309
601.6,18.0306,1.06429,-3.24177
604.2,18.1152,1.04989,-3.24309
606.8,18.1995,1.04387,-3.2421
609.4,18.284,1.02746,-3.24079
612,18.3684,1.01874,-3.24176
614.6,18.4523,1.00243,-3.24178
617.2,18.5372,0.990889,-3.24309
619.8,18.6218,0.978055,-3.24177
622.4,18.7064,0.967566,-3.24309
625,18.791,0.952062,-3.24309
627.6,18.8758,0.935258,-3.24312
630.2,18.9602,0.915239,-3.24441
632.8,19.0448,0.893105,-3.24443
635.4,19.1297,0.880386,-3.24441
638,19.2144,0.872657,-3.24441
640.6,19.2991,0.858987,-3.24572
643.2,19.384,0.850372,-3.24441
645.8,19.4687,0.840774,-3.24439
648.4,19.5535,0.833243,-3.24572
651,19.6387,0.820952,-3.24546
653.6,19.7236,0.80349,-3.24507
656.2,19.8084,0.7763,-3.24639
658.8,19.8934,0.764898,-3.24571
661.4,19.9782,0.730438,-3.24573
664,20.0633,0.715751,-3.24775
666.6,20.1485,0.703291,-3.24639
669.2,20.2337,0.694078,-3.24673
671.8,20.3188,0.677078,-3.24698
674.4,20.4043,0.672888,-3.24737
677,20.4891,0.661619,-3.24737
679.6,20.5747,0.654191,-3.24737
682.2,20.6597,0.649185,-3.24842
684.8,20.7448,0.640901,-3.24869
687.4,20.8302,0.632194,-3.2471
690,20.9154,0.642301,-3.24677
692.6,21.0009,0.62906,-3.24835
695.2,21.0861,0.614645,-3.24836
697.8,21.1716,0.608837,-3.24811
700.4,21.2574,0.592107,-3.24836
703,21.3427,0.581732,-3.24836
705.6,21.4281,0.572423,-3.24833
708.2,21.514,0.560618,-3.24836
710.8,21.5994,0.568011,-3.24709
713.4,21.685,0.554916,-3.24836
716,21.7707,0.545302,-3.24965
718.6,21.8564,0.541683,-3.24834
721.2,21.9421,0.53038,-3.24909
723.8,22.0277,0.525053,-3.24968
726.4,22.1134,0.521354,-3.24968
729,22.1993,0.516086,-3.25098
731.6,22.2853,0.501608,-3.25001
734.2,22.3708,0.494867,-3.25025
736.8,22.4566,0.484596,-3.25105
739.4,22.5432,0.471118,-3.25099
742,22.629,0.460579,-3.25093
744.6,22.7155,0.441899,-3.25198
747.2,22.8015,0.425792,-3.25316
749.8,22.8875,0.403008,-3.25073
752.4,22.9737,0.386047,-3.24968
755,23.0597,0.371596,-3.25076
757.6,23.1458,0.355012,-3.25231
760.2,23.2321,0.341126,-3.25231
762.8,23.3182,0.331457,-3.25262
765.4,23.4044,0.308152,-3.2523
768,23.4908,0.309876,-3.25343
770.6,23.5765,0.294782,-3.25364
773.2,23.663,0.273649,-3.2547
775.8,23.7494,0.265209,-3.25269
778.4,23.8352,0.267234,-3.25494
781,23.9218,0.258814,-3.25482
783.6,24.0084,0.246101,-3.25495
786.2,24.0947,0.244182,-3.25627
788.8,24.1812,0.234707,-3.25754
790,24.2211,0.242083,-3.25627