File: 01_Data/SCBA_Bracket/STA/N2/10K_min/SCBA_Bracket_STA_N2_10KData_240724_R1.csv
Temp./C,Time/min,DSC/(mW/mg),Mass loss/mg
60,0,1.09418,-0.0128386
61.9,0.213852,1.1624,-0.0142358
63.8,0.421045,1.21257,-0.0167971
65.7,0.625806,1.25776,-0.0154769
67.6,0.830159,1.27332,-0.0167693
69.5,1.0314,1.28482,-0.0168018
71.4,1.23079,1.29685,-0.0167898
73.3,1.42907,1.31256,-0.0181069
75.2,1.62773,1.31852,-0.0168008
77.1,1.82249,1.32507,-0.0181088
79,2.02006,1.33438,-0.0194312
80.9,2.21382,1.3381,-0.0181373
82.8,2.40652,1.34166,-0.0181162
84.7,2.59885,1.3498,-0.0194354
86.6,2.79067,1.36781,-0.0187707
88.5,2.97967,1.36877,-0.0194957
90.4,3.17184,1.39145,-0.0208496
92.3,3.3601,1.4003,-0.0194481
94.2,3.5469,1.41188,-0.0194355
96.1,3.73471,1.41332,-0.0197574
98,3.92073,1.423,-0.0181209
99.9,4.10684,1.43154,-0.019809
101.8,4.2916,1.418,-0.0207542
103.7,4.47914,1.42232,-0.0194305
105.6,4.66339,1.42353,-0.0194341
107.5,4.84874,1.42652,-0.0181199
109.4,5.03373,1.4188,-0.01943
111.3,5.21845,1.42836,-0.0194235
113.2,5.40269,1.43236,-0.0187721
115.1,5.58777,1.43819,-0.0181106
117,5.77291,1.43446,-0.01943
118.9,5.9566,1.44729,-0.0182503
120.8,6.14088,1.44353,-0.0194399
122.7,6.32561,1.4557,-0.018804
124.6,6.50671,1.45674,-0.01943
126.5,6.69356,1.46682,-0.0190136
128.4,6.87596,1.47502,-0.0195026
130.3,7.05991,1.47131,-0.01939
132.2,7.24238,1.48844,-0.0194105
134.1,7.42629,1.49614,-0.0183743
136,7.61065,1.50059,-0.0191
137.9,7.79042,1.51929,-0.0180953
139.8,7.97105,1.50772,-0.0191151
141.7,8.15514,1.53106,-0.020417
143.6,8.33547,1.54307,-0.0191
145.5,8.52032,1.55175,-0.0194394
147.4,8.70167,1.54728,-0.01943
149.3,8.88533,1.56448,-0.0193825
151.2,9.0675,1.5695,-0.0196801
153.1,9.24826,1.57821,-0.01843095
155,9.43092,1.58682,-0.01976
156.9,9.61267,1.59305,-0.0207197
158.8,9.79425,1.60069,-0.0196708
160.7,9.97577,1.61679,-0.0194339
162.6,10.1556,1.63199,-0.0204201
164.5,10.3391,1.64545,-0.0204202
166.4,10.5201,1.64375,-0.0213892
168.3,10.7008,1.65754,-0.02272
170.2,10.8832,1.66385,-0.021705
172.1,11.0641,1.67731,-0.0224
174,11.2452,1.69195,-0.0220681
175.9,11.4259,1.69805,-0.0224004
177.8,11.6066,1.70165,-0.02306
179.7,11.7888,1.72334,-0.0220678
181.6,11.9697,1.72787,-0.02405
183.5,12.1501,1.73776,-0.0229667
185.4,12.33,1.74855,-0.02470079
187.3,12.51,1.76137,-0.0249005
189.2,12.6909,1.76263,-0.02404
191.1,12.8709,1.76014,-0.0247032
193,13.0508,1.77632,-0.02469925
194.9,13.2319,1.77768,-0.0236733
196.8,13.4123,1.77283,-0.02509346
198.7,13.5925,1.79024,-0.026131
200.6,13.7745,1.80268,-0.02503
202.5,13.9529,1.83797,-0.02503
204.4,14.136,1.89229,-0.0250131
206.3,14.3163,1.95631,-0.0253416
208.2,14.4997,2.07526,-0.0247026
210.1,14.6836,2.26236,-0.02503
212,14.8673,2.54397,-0.0248178
213.9,15.0541,2.9293,-0.0250302
215.8,15.2401,3.42114,-0.0263478
217.7,15.4295,4.00316,-0.024033
219.6,15.6194,4.58765,-0.0253547
221.5,15.8048,4.9867,-0.02503
223.4,15.9826,4.65634,-0.0258037
225.3,16.1478,3.14558,-0.0237028
227.2,16.3171,2.28973,-0.02602
229.1,16.4923,1.97302,-0.02471
231,16.6706,1.86178,-0.02569
232.9,16.8502,1.81279,-0.0243818
234.8,17.0296,1.80088,-0.0247029
236.7,17.2101,1.7922,-0.02470418
238.6,17.3914,1.79195,-0.0247102
240.5,17.5711,1.79523,-0.02471
242.4,17.7518,1.80062,-0.0253697
244.3,17.9326,1.80564,-0.02405
246.2,18.1136,1.79969,-0.024691
248.1,18.294,1.80723,-0.0231712
250,18.4753,1.80864,-0.02449
251.9,18.6557,1.81611,-0.0231562
253.8,18.8366,1.81165,-0.0228388
255.7,19.0176,1.7998,-0.02284
257.6,19.1977,1.81552,-0.02284
259.5,19.3792,1.79635,-0.0218719
261.4,19.5601,1.81138,-0.02185
263.3,19.7412,1.80186,-0.02185
265.2,19.922,1.80639,-0.02185
267.1,20.1037,1.81026,-0.0211901
269,20.2864,1.81291,-0.0218498
270.9,20.4664,1.82129,-0.02086
272.8,20.6478,1.81286,-0.0202
274.7,20.8305,1.81371,-0.0202347
276.6,21.0108,1.82854,-0.0220701
278.5,21.1928,1.8178,-0.0206137
280.4,21.3744,1.82049,-0.01965
282.3,21.5564,1.82636,-0.01965
284.2,21.7388,1.82337,-0.01932
286.1,21.9206,1.83099,-0.01997974
288,22.1027,1.81746,-0.01866
289.9,22.2841,1.82724,-0.0165157
291.8,22.4664,1.83188,-0.01878
293.7,22.6493,1.83313,-0.0184506
295.6,22.8315,1.82984,-0.0181201
297.5,23.0134,1.83461,-0.0165815
299.4,23.1967,1.83537,-0.01789
301.3,23.3794,1.84187,-0.01822
303.2,23.5624,1.83454,-0.0185226
305.1,23.7432,1.83786,-0.0182366
307,23.9271,1.84214,-0.01789
308.9,24.1109,1.84038,-0.01921
310.8,24.294,1.84331,-0.01923
312.7,24.4763,1.84256,-0.0189093
314.6,24.6588,1.83966,-0.01844
316.5,24.8426,1.85447,-0.01844
318.4,25.0253,1.84907,-0.0204043
320.3,25.2076,1.85465,-0.0191
322.2,25.391,1.85599,-0.02042
324.1,25.5745,1.85398,-0.0209382
326,25.7577,1.85142,-0.0203396
327.9,25.9416,1.84387,-0.02173
329.8,26.125,1.85309,-0.02174
331.7,26.3088,1.8583,-0.0223257
333.6,26.4915,1.85679,-0.0237173
335.5,26.6753,1.86662,-0.0237533
337.4,26.8588,1.86695,-0.02438
339.3,27.042,1.86706,-0.0256917
341.2,27.2252,1.87374,-0.02601915
343.1,27.4093,1.87077,-0.0273428
345,27.5933,1.88626,-0.02866
346.9,27.7783,1.90558,-0.0299699
348.8,27.9609,1.89799,-0.03095447
350.7,28.1454,1.91199,-0.0322787
352.6,28.3288,1.90879,-0.0335888
354.5,28.5141,1.91941,-0.0349221
356.4,28.6988,1.92867,-0.0375399
358.3,28.8835,1.94434,-0.0391903
360.2,29.0687,1.95254,-0.04149
362.1,29.2531,1.96855,-0.0428582
364,29.4378,1.97141,-0.0453979
365.9,29.6222,1.97671,-0.049527
367.8,29.808,2.0006,-0.0534382
369.7,29.9929,2.00461,-0.0564263
371.6,30.1782,2.01917,-0.0595527
373.5,30.3641,2.03572,-0.0642457
375.4,30.5494,2.06791,-0.0695073
377.3,30.7345,2.08418,-0.0747495
379.2,30.9195,2.10959,-0.0810149
381.1,31.1045,2.13474,-0.0843031
383,31.2911,2.16539,-0.0912346
384.9,31.4761,2.18354,-0.0969504
386.8,31.6605,2.22914,-0.108196
388.7,31.849,2.25377,-0.11626
390.6,32.0345,2.29475,-0.124456
392.5,32.2211,2.32774,-0.134476
394.4,32.4066,2.37708,-0.146748
396.3,32.594,2.42765,-0.156513
398.2,32.7792,2.47514,-0.168772
400.1,32.9671,2.5249,-0.182993
402,33.1543,2.58326,-0.195865
403.9,33.3418,2.64943,-0.21259
405.8,33.5286,2.72574,-0.230082
407.7,33.7165,2.79665,-0.247926
409.6,33.9035,2.87206,-0.270822
411.5,34.0918,2.96506,-0.291925
413.4,34.2779,3.02114,-0.316397
415.3,34.4652,3.08647,-0.342979
417.2,34.6538,3.18588,-0.372432
419.1,34.8414,3.30375,-0.405664
421,35.0294,3.43612,-0.442179
422.9,35.2182,3.57253,-0.483903
424.8,35.4077,3.73416,-0.528989
426.7,35.5961,3.95225,-0.582773
428.6,35.7852,4.11588,-0.635624
430.5,35.9759,4.30074,-0.697598
432.4,36.165,4.47619,-0.760766
434.3,36.3545,4.64039,-0.831955
436.2,36.5435,4.82294,-0.907421
438.1,36.7335,5.00515,-0.987637
440,36.9238,5.17882,-1.07619
441.9,37.1139,5.37412,-1.17068
443.8,37.3036,5.53717,-1.27187
445.7,37.4938,5.70735,-1.37746
447.6,37.683,5.85735,-1.48803
449.5,37.8747,5.99118,-1.60723
451.4,38.0614,6.08546,-1.73146
453.3,38.2532,6.13774,-1.86109
455.2,38.4414,6.10703,-1.99196
457.1,38.6292,5.98273,-2.12495
459,38.8136,5.7479,-2.25724
460.9,38.9977,5.4028,-2.38381
462.8,39.1805,4.92335,-2.50629
464.7,39.3621,4.36327,-2.61839
466.6,39.5416,3.75879,-2.71985
468.5,39.7225,3.12945,-2.81146
470.4,39.9018,2.54105,-2.89067
472.3,40.084,2.02264,-2.95897
474.2,40.2662,1.57206,-3.01479
476.1,40.4488,1.21062,-3.06348
478,40.6333,0.924143,-3.10519
479.9,40.8184,0.720626,-3.1395
481.8,41.0045,0.567835,-3.167
483.7,41.1923,0.451885,-3.19206
485.6,41.3804,0.357284,-3.21213
487.5,41.5672,0.277852,-3.22851
489.4,41.7554,0.2003537,-3.24181
491.3,41.9431,0.134871,-3.25124
493.2,42.1309,0.0810124,-3.25683
495.1,42.3189,0.0438222,-3.26321
497,42.5082,0.0240767,-3.26636
498.9,42.6963,0.0263618,-3.2677
500.8,42.886,0.01318492,-3.26768
502.7,43.0734,0.0211638,-3.26835
504.6,43.2632,0.02166358,-3.26835
506.5,43.4534,0.0208553,-3.27066
508.4,43.6416,0.0145314,-3.26934
510.3,43.8314,-0.0201167,-3.26926
512.2,44.0208,-0.0164495,-3.26935
514.1,44.2107,-0.0105565,-3.26936
516,44.4007,0.005168173,-3.26935
517.9,44.5887,0.0121034,-3.26906
519.8,44.7818,0.0153333,-3.27044
521.7,44.9707,0.019763,-3.26902
523.6,45.1596,0.0185784,-3.26903
525.5,45.3511,0.0224192,-3.26934
527.4,45.5422,0.0354373,-3.26934
529.3,45.7329,0.0465865,-3.26736
531.2,45.9222,0.0678234,-3.26868
533.1,46.115,0.0788899,-3.26867
535,46.3046,0.100513,-3.26868
536.9,46.4961,0.104016,-3.26902
538.8,46.6869,0.0947657,-3.2687
540.7,46.8768,0.0954483,-3.26869
542.6,47.0674,0.0919201,-3.26868
544.5,47.2583,0.07875023,-3.26869
546.4,47.4476,0.0712004,-3.26869
548.3,47.6378,0.0601315,-3.26899
550.2,47.8275,0.0636243,-3.26764
552.1,48.0184,0.062659,-3.26704
554,48.2067,0.053103,-3.26704
555.9,48.3973,0.0538165,-3.26736
557.8,48.5878,0.0522498,-3.26736
559.7,48.7778,0.0474516,-3.26738
561.6,48.9687,0.044408,-3.26737
563.5,49.159,0.0438945,-3.26737
565.4,49.3485,0.0364001,-3.26706
567.3,49.5408,0.0266116,-3.26605
569.2,49.7309,0.0310357,-3.26737
571.1,49.9228,0.0219588,-3.26869
573,50.1143,0.029909,-3.26737
574.9,50.3052,0.02466386,-3.26737
576.8,50.4959,0.0144902,-3.26737
578.7,50.6865,0.008500025,-3.26638
580.6,50.8772,0.0134216,-3.26638
582.5,51.0686,0.008766058,-3.26736
584.4,51.2591,0.004612714,-3.26638
586.3,51.4486,0.0144487,-3.26704
588.2,51.642,0.0141382,-3.26696
590.1,51.8336,0.0144209,-3.26685
592,52.0257,0.0110519,-3.26605
593.9,52.2177,0.008468165,-3.26605
595.8,52.4092,0.003483839,-3.26638
597.7,52.6011,0.008468705,-3.26607
599.6,52.7931,0.0146387,-3.26737
600,52.8337,0.007700124,-3.26737
,,,
,,,
,,,
,,,
,,,
,,,
,,,
,,,
,,,
,,,
,,,
,,,
,,,
,,,
,,,
,,,
,,,
,,,
,,,
,,,
,,,
,,,
,,,
,,,
,,,
,,,
,,,
,,,
,,,
,,,
,,,
,,,
,,,
,,,
,,,
,,,
,,,
,,,
,,,
,,,
,,,
,,,
,,,
,,,
,,,
,,,
,,,
,,,
,,,
,,,
,,,
,,,
,,,
,,,
,,,
,,,
,,,
,,,
,,,
,,,
,,,
,,,
,,,
,,,
,,,
,,,
,,,
,,,
,,,
,,,
,,,
,,,
,,,
,,,
,,,
,,,
,,,
,,,
,,,
,,,
,,,
,,,
,,,
,,,
,,,
,,,
,,,
,,,
,,,
,,,
,,,
,,,
,,,
,,,
,,,
,,,
,,,
,,,
,,,
,,,
,,,
,,,
,,,
,,,
,,,
,,,
,,,
,,,
,,,
,,,
,,,
,,,
,,,
,,,
,,,
,,,
,,,
,,,
,,,
,,,
,,,
,,,
,,,
,,,
,,,
,,,
,,,
,,,
,,,
,,,
,,,
,,,
,,,
,,,
,,,
,,,
,,,
,,,
,,,
,,,
,,,
,,,
,,,
,,,
,,,
,,,
,,,
,,,
,,,
,,,
,,,
,,,
,,,
,,,
,,,
,,,
,,,
,,,
,,,
,,,
,,,
,,,
,,,
,,,
,,,
,,,
,,,
,,,
,,,
,,,
,,,
,,,
,,,
,,,
,,,
,,,
,,,
,,,
,,,
,,,
,,,
,,,
,,,
,,,
,,,
,,,
,,,
,,,
,,,
,,,
,,,
,,,
,,,
,,,
,,,
,,,
,,,
,,,
,,,
,,,
,,,
,,,
,,,
,,,
,,,
,,,
,,,
,,,
,,,
,,,
,,,
,,,
,,,
,,,
,,,
,,,
,,,
,,,
,,,
,,,
,,,
,,,
,,,
,,,
,,,
,,,
,,,
,,,
,,,
,,,
,,,
,,,
,,,
,,,
,,,
,,,
,,,
,,,
,,,
,,,
,,,
,,,
,,,
,,,
,,,
,,,
,,,
,,,
,,,
,,,
,,,
,,,
,,,
,,,
,,,
,,,
,,,
,,,
,,,
,,,
,,,
,,,
,,,
,,,
,,,
,,,
,,,
,,,
,,,
,,,
,,,
,,,
,,,
,,,
,,,
,,,
,,,
,,,
,,,
,,,
,,,
,,,
,,,
,,,
,,,
,,,
,,,
,,,
,,,
,,,
,,,
,,,
,,,
,,,
,,,
,,,
,,,
,,,