File: 01_Data/SCBA_Bracket/STA/N2/10K_min/SCBA_Bracket_STA_N2_10KData_240725_R2.csv
Temp./C,Time/min,DSC/(mW/mg),Mass loss/mg
60,0,1.11265,-0.0270518
61.9,0.217201,1.18097,-0.0266034
63.8,0.425296,1.22385,-0.0281555
65.7,0.62787,1.27284,-0.02793919
67.6,0.834028,1.29669,-0.0284242
69.5,1.03545,1.3084,-0.0283123
71.4,1.23605,1.32604,-0.0299602
73.3,1.43628,1.32766,-0.03081696
75.2,1.63263,1.34796,-0.03095
77.1,1.83161,1.35597,-0.0301887
79,2.0251,1.37447,-0.0309257
80.9,2.22125,1.37854,-0.03095003
82.8,2.41493,1.39793,-0.0309471
84.7,2.60677,1.41011,-0.0322804
86.6,2.79669,1.41489,-0.0332611
88.5,2.99032,1.42538,-0.0308819
90.4,3.18146,1.43796,-0.03227195
92.3,3.36845,1.46363,-0.03227
94.2,3.55808,1.47195,-0.0335935
96.1,3.74584,1.46781,-0.0349089
98,3.93268,1.45893,-0.03359
99.9,4.11994,1.46153,-0.0325873
101.8,4.306,1.45794,-0.034609
103.7,4.48923,1.45549,-0.03358
105.6,4.67643,1.45086,-0.034892
107.5,4.86048,1.45277,-0.0349098
109.4,5.0482,1.45735,-0.03567658
111.3,5.23252,1.45727,-0.0362083
113.2,5.41627,1.46934,-0.0358931
115.1,5.60167,1.46804,-0.0349
117,5.78693,1.47358,-0.0334754
118.9,5.97151,1.47676,-0.03611
120.8,6.15584,1.47505,-0.0354836
122.7,6.33928,1.49045,-0.03677
124.6,6.52404,1.49032,-0.03809
126.5,6.70814,1.50347,-0.0374274
128.4,6.89261,1.5063,-0.03611
130.3,7.07492,1.51516,-0.0374645
132.2,7.25813,1.52756,-0.0354457
134.1,7.44231,1.53631,-0.03677
136,7.62204,1.54366,-0.0377648
137.9,7.80752,1.54397,-0.03874
139.8,7.98986,1.55508,-0.0393955
141.7,8.17281,1.5673,-0.03889182
143.6,8.35512,1.57184,-0.0394
145.5,8.535706,1.59154,-0.0407207
147.4,8.71936,1.60037,-0.0380664
149.3,8.90101,1.61321,-0.04052131
151.2,9.0825,1.62452,-0.0402906
153.1,9.26415,1.62561,-0.0416204
155,9.44518,1.64171,-0.0406149
156.9,9.62814,1.64213,-0.041208
158.8,9.80681,1.66491,-0.043117
160.7,9.9902,1.66479,-0.0432105
162.6,10.1709,1.68368,-0.0437205
164.5,10.3519,1.68475,-0.0435795
166.4,10.5316,1.69287,-0.0435735
168.3,10.7152,1.70162,-0.0449
170.2,10.8964,1.72156,-0.04621
172.1,11.077,1.72979,-0.0462098
174,11.2582,1.73993,-0.0468693
175.9,11.44,1.75075,-0.04687
177.8,11.6213,1.76494,-0.04687
179.7,11.802,1.76762,-0.0468714
181.6,11.9826,1.78446,-0.04819
183.5,12.1636,1.79028,-0.04819
185.4,12.3442,1.78555,-0.0488439
187.3,12.5253,1.80422,-0.04951
189.2,12.7051,1.80283,-0.0495099
191.1,12.8864,1.80934,-0.0478567
193,13.0667,1.82613,-0.0491841
194.9,13.2474,1.82766,-0.0491798
196.8,13.4284,1.82618,-0.0505
198.7,13.6097,1.84652,-0.0486914
200.6,13.7907,1.86228,-0.04918
202.5,13.9727,1.89501,-0.05049
204.4,14.1531,1.94635,-0.05049
206.3,14.3358,2.00589,-0.0483787
208.2,14.5184,2.12389,-0.0508218
210.1,14.7012,2.31788,-0.0498253
212,14.8862,2.59376,-0.04983
213.9,15.0726,2.98402,-0.05115
215.8,15.2607,3.48496,-0.05115
217.7,15.4506,4.07317,-0.0508194
219.6,15.6392,4.68913,-0.04898495
221.5,15.8278,5.15066,-0.05082
223.4,16.0061,4.75602,-0.0519018
225.3,16.1695,3.22267,-0.0508371
227.2,16.3389,2.35779,-0.05148
229.1,16.5138,2.02569,-0.05016
231,16.6918,1.90157,-0.05016
232.9,16.8698,1.87231,-0.0501598
234.8,17.0492,1.85005,-0.05115002
236.7,17.2284,1.85163,-0.05115
238.6,17.4076,1.85087,-0.0507947
240.5,17.5874,1.84065,-0.0508202
242.4,17.7685,1.84448,-0.05214
244.3,17.9479,1.84643,-0.05181
246.2,18.1284,1.84857,-0.0501601
248.1,18.3089,1.84242,-0.05247
250,18.4899,1.84725,-0.05247
251.9,18.6714,1.83967,-0.0511507
253.8,18.8511,1.83799,-0.0528
255.7,19.0324,1.8367,-0.0528
257.6,19.2144,1.84846,-0.0514724
259.5,19.3946,1.84633,-0.0534944
261.4,19.5759,1.83965,-0.0524876
263.3,19.7583,1.84361,-0.05214
265.2,19.9381,1.83998,-0.0511453
267.1,20.1186,1.84915,-0.0504682
269,20.3009,1.8555,-0.0517838
270.9,20.4822,1.85829,-0.05412009
272.8,20.6634,1.85189,-0.0528
274.7,20.8438,1.85065,-0.052809
276.6,21.0268,1.84482,-0.05305696
278.5,21.2095,1.84702,-0.0529059
280.4,21.3911,1.84908,-0.05357027
282.3,21.5736,1.85639,-0.05357378
284.2,21.7558,1.85749,-0.0532186
286.1,21.9382,1.8546,-0.0548893
288,22.1193,1.86057,-0.0535739
289.9,22.3024,1.86879,-0.05290997
291.8,22.4831,1.87681,-0.05423048
293.7,22.6677,1.86755,-0.05555
295.6,22.8477,1.87259,-0.0561499
297.5,23.0318,1.88845,-0.056309
299.4,23.2118,1.87002,-0.0545601
301.3,23.3954,1.87074,-0.05588
303.2,23.5786,1.87629,-0.05588
305.1,23.7606,1.8743,-0.0571971
307,23.942,1.87458,-0.0585
308.9,24.1247,1.8791,-0.0571991
310.8,24.3071,1.8779,-0.0585
312.7,24.4892,1.87934,-0.05851
314.6,24.6714,1.87661,-0.05851
316.5,24.8534,1.87936,-0.0595032
318.4,25.0377,1.87952,-0.05983003
320.3,25.2199,1.89094,-0.06115
322.2,25.4018,1.87846,-0.06012
324.1,25.584,1.87437,-0.062833
326,25.769,1.87899,-0.0617999
327.9,25.9517,1.87146,-0.0630497
329.8,26.1338,1.88871,-0.0647307
331.7,26.318,1.8921,-0.0644398
333.6,26.5014,1.89045,-0.0644155
335.5,26.6851,1.89108,-0.0667397
337.4,26.8677,1.90845,-0.06575
339.3,27.0516,1.90882,-0.0683174
341.2,27.236,1.90961,-0.070037
343.1,27.4202,1.91302,-0.0713401
345,27.6035,1.9082,-0.0739614
346.9,27.7877,1.90999,-0.07399
348.8,27.9723,1.92022,-0.0739366
350.7,28.1572,1.92144,-0.07662
352.6,28.3404,1.92969,-0.0792288
354.5,28.5255,1.92849,-0.0805765
356.4,28.7092,1.94594,-0.0818977
358.3,28.8937,1.95935,-0.0845298
360.2,29.0777,1.95894,-0.0865526
362.1,29.2631,1.97414,-0.0911261
364,29.4483,1.98158,-0.092459
365.9,29.6332,2.00256,-0.0964768
367.8,29.8188,2.00195,-0.100446
369.7,30.0044,2.01858,-0.103776
371.6,30.1898,2.03697,-0.10839
373.5,30.3741,2.04868,-0.113573
375.4,30.56,2.08142,-0.118887
377.3,30.7446,2.10718,-0.124154
379.2,30.9284,2.12299,-0.13155
381.1,31.1146,2.15,-0.136064
383,31.3016,2.17235,-0.144454
384.9,31.4868,2.20788,-0.150486
386.8,31.6729,2.22633,-0.159542
388.7,31.8581,2.24863,-0.16838
390.6,32.0438,2.2909,-0.178046
392.5,32.2306,2.33281,-0.187306
394.4,32.4146,2.36793,-0.198513
396.3,32.6031,2.4123,-0.210831
398.2,32.7897,2.45605,-0.222993
400.1,32.9767,2.50788,-0.2371892
402,33.1609,2.56756,-0.253023
403.9,33.3491,2.63206,-0.268183
405.8,33.5368,2.71081,-0.285951
407.7,33.7238,2.79613,-0.304768
409.6,33.9119,2.88679,-0.325841
411.5,34.1008,2.96322,-0.351148
413.4,34.2872,3.06694,-0.376094
415.3,34.4765,3.14813,-0.403182
417.2,34.6632,3.20989,-0.433177
419.1,34.8512,3.30891,-0.46786
421,35.0388,3.44772,-0.505218
422.9,35.2277,3.5911,-0.545695
424.8,35.4171,3.75154,-0.590944
426.7,35.6069,3.96195,-0.644834
428.6,35.7971,4.12879,-0.7024
430.5,35.9857,4.3143,-0.761686
432.4,36.1759,4.49214,-0.82781
434.3,36.3631,4.67047,-0.898613
436.2,36.556,4.86026,-0.976721
438.1,36.7425,5.04913,-1.05686
440,36.9363,5.26573,-1.14619
441.9,37.1257,5.43638,-1.24335
443.8,37.3169,5.60837,-1.34553
445.7,37.5072,5.77457,-1.45457
447.6,37.6973,5.92798,-1.56561
449.5,37.8871,6.04975,-1.68514
451.4,38.0772,6.15855,-1.8129
453.3,38.267,6.2185,-1.94353
455.2,38.4545,6.20337,-2.07343
457.1,38.6409,6.08273,-2.20878
459,38.8276,5.82738,-2.34157
460.9,39.0117,5.46903,-2.47173
462.8,39.1933,4.98443,-2.59365
464.7,39.376,4.42194,-2.70688
466.6,39.5541,3.80871,-2.80942
468.5,39.7339,3.17686,-2.90131
470.4,39.916,2.57796,-2.9845
472.3,40.096,2.01075,-3.052
474.2,40.2785,1.54291,-3.11262
476.1,40.4612,1.17564,-3.16224
478,40.645,0.895863,-3.20133
479.9,40.83,0.679809,-3.24046
481.8,41.0162,0.51657,-3.26838
483.7,41.2022,0.404935,-3.29329
485.6,41.3905,0.319753,-3.31357
487.5,41.5772,0.217576,-3.33113
489.4,41.7658,0.151936,-3.34506
491.3,41.9531,0.0705943,-3.35626
493.2,42.1411,0.003273988,-3.36313
495.1,42.3288,-0.040583,-3.36957
497,42.5189,-0.0729849,-3.37301
498.9,42.7079,-0.0898108,-3.37484
500.8,42.897,-0.0891796,-3.37583
502.7,43.0866,-0.0924447,-3.37616
504.6,43.2763,-0.0896552,-3.37747
506.5,43.4652,-0.0905943,-3.37747
508.4,43.6555,-0.0879146,-3.37648
510.3,43.8456,-0.08126224,-3.3777
512.2,44.0352,-0.0842325,-3.37747
514.1,44.2234,-0.06678397,-3.37747
516,44.4141,-0.0377252,-3.37616
517.9,44.6008,0.0183054,-3.37747
519.8,44.7927,0.0372011,-3.37748
521.7,44.9827,0.0306843,-3.37847
523.6,45.1726,0.03386485,-3.37978
525.5,45.3629,0.03731245,-3.37811
527.4,45.553,0.0385079,-3.37762
529.3,45.7426,0.03571073,-3.37945
531.2,45.9331,0.0398715,-3.37813
533.1,46.123,0.0243847,-3.37813
535,46.3133,0.0274022,-3.37681
536.9,46.5032,0.0267099,-3.37714
538.8,46.693,0.03311979,-3.37747
540.7,46.8833,0.0304337,-3.3778
542.6,47.0735,0.0185452,-3.37912
544.5,47.2633,0.0183152,-3.37912
546.4,47.4536,0.0143633,-3.37844
548.3,47.6436,0.000737698,-3.37846
550.2,47.833,0.001813555,-3.3788
552.1,48.0238,0.000907135,-3.37761
554,48.2137,-0.00730779,-3.37814
555.9,48.4045,-0.0154002,-3.37876
557.8,48.5946,-0.0179287,-3.3781
559.7,48.7853,-0.0276094,-3.37715
561.6,48.9766,-0.0213098,-3.37748
563.5,49.1676,-0.0225559,-3.37879
565.4,49.3591,-0.021129,-3.37747
567.3,49.5497,-0.0275922,-3.37614
569.2,49.7401,-0.0394713,-3.37681
571.1,49.9311,-0.040787,-3.378
573,50.1215,-0.0469171,-3.37533
574.9,50.3109,-0.0604003,-3.37507
576.8,50.503,-0.0489369,-3.37484
578.7,50.6931,-0.0536653,-3.37513
580.6,50.8838,-0.0641643,-3.37418
582.5,51.0751,-0.0577736,-3.3755
584.4,51.2657,-0.069184,-3.3755
586.3,51.4548,-0.0690511,-3.3755
588.2,51.6469,-0.0752683,-3.3755
590.1,51.8371,-0.0716557,-3.37549
592,52.0282,-0.07340388,-3.3755
593.9,52.22,-0.075108,-3.37549
595.8,52.4086,-0.0831039,-3.37656
597.7,52.6025,-0.0872678,-3.37549
599.6,52.794,-0.0826555,-3.37517
600,52.8352,-0.0785946,-3.3752