File: 01_Data/Helmet_Brim_Edging/STA/N2/10K_min/Helmet_Brim_Edging_STA_N2_10KData_240223_R1.csv
Temp./C,Time/min,DSC/(mW/mg),Mass loss/mg
60.0,0.0,0.755005,0.00055654
62,0.224637,0.799587,0.00176901
64,0.442525,0.823005,0.000465577
66,0.66302,0.830807,0.000554015
68,0.873917,0.846166,0.000430485
70,1.08962,0.869204,-0.00189065
72,1.3,0.873134,-0.000848898
74,1.50935,0.887586,-0.000864205
76,1.71693,0.890164,0.000440004
78,1.9237,0.894095,-0.00140082
80,2.13031,0.898501,-0.000869992
82,2.3347,0.910631,-0.000879961
84,2.53856,0.918471,-0.00206046
86,2.74192,0.91316,-0.00246235
88,2.94251,0.916734,-0.000827828
90,3.14241,0.927857,-0.000880575
92,3.34303,0.935163,-0.00151842
94,3.54212,0.938382,-0.00285001
96,3.73903,0.940504,-0.00154008
98,3.93574,0.949237,-0.00157318
100,4.1328,0.952428,-0.00417123
102,4.32933,0.95332,-0.00284761
104,4.52554,0.959935,-0.00337789
106,4.71827,0.963897,-0.00548012
108,4.91682,0.973452,-0.00549004
110,5.11161,0.972998,-0.00549531
112,5.30611,0.978016,-0.00416969
114,5.50251,0.972913,-0.00413562
116,5.69626,0.973975,-0.00416704
118,5.89196,0.978924,-0.00416824
120,6.08554,0.985309,-0.0051448
122,6.27852,0.988455,-0.00548974
124,6.47232,0.99601,-0.00549
126,6.66656,0.9899,-0.00417021
128,6.85894,1.00131,-0.00680787
130,7.05297,1.01704,-0.00549011
132,7.24671,1.022,-0.00779001
134,7.43979,1.04813,-0.00778928
136,7.63204,1.06273,-0.00646944
138,7.82543,1.09143,-0.00811947
140,8.01904,1.14024,-0.00943729
142,8.21173,1.20082,-0.00812
144,8.40406,1.27435,-0.00944
146,8.59684,1.36822,-0.00811999
148,8.79048,1.47522,-0.01042
150,8.98421,1.58661,-0.010434
152,9.17851,1.67913,-0.0117815
154,9.36963,1.73513,-0.0107937
156,9.5594,1.66517,-0.01175
158,9.74812,1.46577,-0.0125908
160,9.93647,1.25977,-0.0114893
162,10.1251,1.15584,-0.0116901
164,10.3154,1.11407,-0.0116899
166,10.5045,1.11093,-0.0124
168,10.6972,1.1045,-0.01306
170,10.8869,1.11627,-0.01438
172,11.0758,1.12157,-0.0130242
174,11.2676,1.12223,-0.0140987
176,11.4602,1.13276,-0.0127418
178,11.649,1.13241,-0.0140592
180,11.8399,1.13064,-0.01405
182,12.0298,1.13919,-0.01471
184,12.2201,1.14436,-0.0153536
186,12.4104,1.15156,-0.0166815
188,12.6011,1.1545,-0.01669
190,12.7907,1.16137,-0.0166864
192,12.9819,1.15194,-0.01669
194,13.1715,1.16505,-0.0180099
196,13.362,1.16515,-0.0193199
198,13.5511,1.16648,-0.0193203
200,13.7406,1.17905,-0.02063
202,13.9315,1.17436,-0.02129
204,14.1201,1.18813,-0.0219505
206,14.3103,1.19707,-0.0232698
208,14.5,1.19341,-0.0212966
210,14.6913,1.20738,-0.0245768
212,14.8804,1.20933,-0.02524
214,15.0723,1.21933,-0.0266992
216,15.2623,1.21793,-0.02821
218,15.4525,1.22571,-0.02887
220,15.6421,1.23136,-0.0281631
222,15.8329,1.23858,-0.0308417
224,16.0226,1.24565,-0.0307971
226,16.2131,1.2538,-0.0328197
228,16.4009,1.25388,-0.03414
230,16.5942,1.26464,-0.0354565
232,16.7839,1.26472,-0.0364542
234,16.9721,1.27193,-0.0367769
236,17.1643,1.27126,-0.0394232
238,17.3545,1.27602,-0.04072
240,17.5452,1.27849,-0.0420169
242,17.7345,1.28036,-0.044662
244,17.9243,1.29301,-0.0467873
246,18.1149,1.28866,-0.0485709
248,18.3054,1.29752,-0.0512922
250,18.4955,1.30459,-0.0525815
252,18.6856,1.31718,-0.05654
254,18.8751,1.32019,-0.0578603
256,19.0655,1.32791,-0.0614182
258,19.256,1.33362,-0.0631301
260,19.4462,1.32984,-0.0657018
262,19.636,1.33405,-0.0683908
264,19.8275,1.33742,-0.0716978
266,20.0173,1.33629,-0.0762657
268,20.2072,1.34929,-0.0777562
270,20.3989,1.35351,-0.0828741
272,20.5897,1.3636,-0.0868477
274,20.781,1.36205,-0.0922181
276,20.9719,1.37749,-0.0975061
278,21.1633,1.3766,-0.102798
280,21.3527,1.3863,-0.106503
282,21.546,1.39711,-0.113079
284,21.7379,1.40615,-0.117483
286,21.9302,1.406,-0.124382
288,22.1197,1.42012,-0.129978
290,22.3119,1.41971,-0.134894
292,22.5037,1.42994,-0.142264
294,22.6939,1.4404,-0.149989
296,22.8857,1.44412,-0.156951
298,23.0762,1.45928,-0.163371
300,23.2689,1.46393,-0.173048
302,23.4594,1.47958,-0.181409
304,23.6505,1.50393,-0.190411
306,23.8431,1.52753,-0.2001
308,24.0347,1.56984,-0.212094
310,24.2272,1.60984,-0.223707
312,24.4193,1.64203,-0.234901
314,24.6117,1.6302,-0.249358
316,24.8016,1.44599,-0.264274
318,24.9928,1.38845,-0.28032
320,25.1854,1.37263,-0.29937
322,25.3774,1.36617,-0.320625
324,25.5687,1.3759,-0.341933
326,25.7618,1.37726,-0.366874
328,25.9543,1.3646,-0.392917
330,26.1465,1.35471,-0.422666
332,26.3396,1.34294,-0.45368
334,26.5322,1.33915,-0.489111
336,26.7246,1.31976,-0.525107
338,26.9165,1.29966,-0.568035
340,27.1087,1.27823,-0.617503
342,27.3021,1.24569,-0.674968
344,27.493,1.20692,-0.740487
346,27.6841,1.18556,-0.810956
348,27.8775,1.17616,-0.890653
350,28.0701,1.18485,-0.972503
352,28.2629,1.19248,-1.05403
354,28.4552,1.18177,-1.13077
356,28.6488,1.16955,-1.20178
358,28.8402,1.17504,-1.26379
360,29.0332,1.17072,-1.31876
362,29.2268,1.16207,-1.37274
364,29.4186,1.16306,-1.4188
366,29.6114,1.15988,-1.46231
368,29.8046,1.15379,-1.50066
370,29.9991,1.1431,-1.53872
372,30.1926,1.12868,-1.57299
374,30.3867,1.11149,-1.60483
376,30.5809,1.10159,-1.63429
378,30.7751,1.08531,-1.66342
380,30.9691,1.07209,-1.68977
382,31.162,1.0602,-1.71524
384,31.3557,1.04672,-1.74014
386,31.5502,1.04061,-1.76643
388,31.7453,1.03611,-1.79045
390,31.9404,1.02308,-1.8129
392,32.1351,1.0178,-1.83935
394,32.3288,1.00629,-1.86015
396,32.5244,1.00858,-1.88188
398,32.7189,1.00129,-1.90552
400,32.9134,1.00597,-1.92821
402,33.1086,1.00416,-1.95029
404,33.304,1.00816,-1.97197
406,33.4992,1.00864,-1.99344
408,33.6927,1.01859,-2.01458
410,33.8883,1.02618,-2.03494
412,34.0837,1.03113,-2.0583
414,34.2771,1.04056,-2.07818
416,34.475,1.0438,-2.10031
418,34.6695,1.04765,-2.12075
420,34.8662,1.06533,-2.14617
422,35.0615,1.06677,-2.1674
424,35.2571,1.07551,-2.19227
426,35.4529,1.09155,-2.21446
428,35.6495,1.10362,-2.23897
430,35.8456,1.12504,-2.26376
432,36.0411,1.14091,-2.29061
434,36.2379,1.16559,-2.31721
436,36.4337,1.19241,-2.34425
438,36.6302,1.22149,-2.37497
440,36.827,1.24501,-2.40452
442,37.0229,1.27805,-2.43979
444,37.2198,1.30264,-2.47305
446,37.4147,1.3178,-2.50977
448,37.6118,1.34634,-2.54887
450,37.808,1.37684,-2.58932
452,38.0046,1.39438,-2.63217
454,38.2013,1.41018,-2.67473
456,38.3984,1.4255,-2.72434
458,38.5964,1.43184,-2.77199
460,38.7926,1.42858,-2.82212
462,38.9898,1.41038,-2.87484
464,39.1866,1.38965,-2.92805
466,39.383,1.35105,-2.98418
468,39.5791,1.29438,-3.03688
470,39.7758,1.21683,-3.09041
472,39.9711,1.12184,-3.1412
474,40.1682,1.01963,-3.19051
476,40.3634,0.890535,-3.23591
478,40.5576,0.762174,-3.27865
480,40.7536,0.627756,-3.31542
482,40.9495,0.483879,-3.34756
484,41.1436,0.341355,-3.37121
486,41.3379,0.22478,-3.38956
488,41.5337,0.129685,-3.40276
490,41.7314,0.0663841,-3.41256
492,41.9276,0.0196015,-3.41952
494,42.1243,-0.0191022,-3.42511
496,42.3218,-0.0305338,-3.42785
498,42.5193,-0.0376023,-3.43049
500,42.7165,-0.0462025,-3.43214
502,42.9154,-0.0324399,-3.43478
504,43.1118,-0.0311448,-3.43412
506,43.3095,-0.0355459,-3.43544
508,43.5073,-0.0396339,-3.43676
510,43.705,-0.0379786,-3.43676
512,43.9029,-0.0397926,-3.43807
514,44.102,-0.0474717,-3.43807
516,44.3001,-0.0447582,-3.43972
518,44.4969,-0.0558854,-3.43834
520,44.6964,-0.0537316,-3.44104
522,44.8939,-0.0500038,-3.43972
524,45.0924,-0.0454844,-3.44104
526,45.2908,-0.0462874,-3.44363
528,45.4906,-0.0413303,-3.44366
530,45.6899,-0.0435651,-3.44367
532,45.8889,-0.0400809,-3.44301
534,46.0883,-0.0303743,-3.44433
536,46.288,-0.030774,-3.44596
538,46.4865,-0.0222001,-3.44714
540,46.6856,-0.0169265,-3.44588
542,46.8857,-0.0139645,-3.44828
544,47.0835,-0.0011162,-3.44956
546,47.2845,0.00890928,-3.45003
548,47.4825,0.0123821,-3.45124
550,47.6827,0.023124,-3.45255
552,47.8812,0.0352088,-3.45256
554,48.0803,0.0575639,-3.45389
556,48.2801,0.0758628,-3.45377
558,48.4796,0.102682,-3.45717
560,48.6788,0.124679,-3.45778
562,48.8778,0.143954,-3.45783
564,49.0776,0.157384,-3.46111
566,49.2749,0.154671,-3.46211
568,49.4775,0.149345,-3.46278
570,49.6757,0.132597,-3.46375
572,49.8761,0.11871,-3.46441
574,50.0756,0.119099,-3.46578
576,50.2757,0.132314,-3.46574
578,50.475,0.147145,-3.46705
580,50.6737,0.170768,-3.46706
582,50.8767,0.182442,-3.46706
584,51.078,0.197623,-3.46837
586,51.278,0.201297,-3.46837
588,51.4775,0.208707,-3.46936
590,51.6791,0.211302,-3.47002
592,51.8811,0.217555,-3.46902
594,52.0824,0.230631,-3.46969
596,52.2834,0.229256,-3.46936
598,52.4836,0.244551,-3.47067
600,52.6843,0.249236,-3.47168
602,52.886,0.268086,-3.47166
604,53.0871,0.286113,-3.47165
606,53.2872,0.297359,-3.47298
608,53.4879,0.314199,-3.47304
610,53.6909,0.320947,-3.47431
612,53.8927,0.341794,-3.47595
614,54.0941,0.360698,-3.47536
616,54.2948,0.37289,-3.4765
618,54.4968,0.376623,-3.47853
620,54.697,0.380941,-3.47858
622,54.8994,0.393691,-3.47924
624,55.0977,0.401947,-3.47924
626,55.2998,0.405911,-3.47989
628,55.5029,0.412061,-3.47988
630,55.7054,0.420481,-3.48251
632,55.9067,0.42583,-3.48201
634,56.1078,0.418358,-3.48356
636,56.3083,0.409989,-3.48352
638,56.5093,0.399592,-3.48484
640,56.7098,0.382848,-3.48616