File: 01_Data/Helmet_Brim_Edging/STA/N2/10K_min/Helmet_Brim_Edging_STA_N2_10KData_241018_R4.csv
Temp./C,Time/min,DSC/(mW/mg),Mass loss/mg
60.0,0.0,0.940595,0.00811037
62.2,0.245392,1.00072,0.00990825
64.4,0.481888,1.04177,0.00977887
66.6,0.719329,1.0789,0.00847281
68.8,0.952185,1.0956,0.00975125
71,1.18335,1.11492,0.00844749
73.2,1.41276,1.12939,0.00985637
75.4,1.64065,1.13482,0.00844774
77.6,1.86709,1.14963,0.00980107
79.8,2.09332,1.15283,0.00996646
82,2.31668,1.16978,0.0108169
84.2,2.53984,1.19252,0.0120701
86.4,2.76107,1.21022,0.0123966
88.6,2.9805,1.22833,0.0117668
90.8,3.20167,1.23633,0.0121171
93,3.41667,1.24281,0.0094408
95.2,3.63367,1.25362,0.0107585
97.4,3.84982,1.26089,0.0110583
99.6,4.06527,1.27378,0.01207
101.8,4.2796,1.28175,0.0129998
104,4.49403,1.31046,0.01208
106.2,4.70787,1.31508,0.0120868
108.4,4.92207,1.32874,0.01207
110.6,5.13631,1.34307,0.0118626
112.8,5.3512,1.36088,0.0120798
115,5.56176,1.38583,0.0120798
117.2,5.77647,1.4163,0.0133902
119.4,5.99005,1.42472,0.01339
121.6,6.20245,1.40479,0.0147569
123.8,6.41419,1.40869,0.0136707
126,6.62679,1.42569,0.0133916
128.2,6.84023,1.42761,0.0143862
130.4,7.05202,1.44501,0.0161266
132.6,7.2636,1.47005,0.0147071
134.8,7.47518,1.50107,0.0154343
137,7.68601,1.54122,0.0153595
139.2,7.89854,1.59456,0.01504
141.4,8.10957,1.66161,0.0147252
143.6,8.32179,1.76222,0.0140497
145.8,8.53366,1.8748,0.0154384
148,8.74454,2.00163,0.0140386
150.2,8.95677,2.12225,0.01503
152.4,9.16624,2.19294,0.0137207
154.6,9.37612,2.12812,0.0164618
156.8,9.58216,1.86201,0.0163814
159,9.78798,1.64058,0.01504
161.2,9.99623,1.55208,0.01372
163.4,10.2046,1.52362,0.014061
165.6,10.4132,1.52291,0.0134095
167.8,10.6222,1.52507,0.01603
170,10.8309,1.54355,0.0174667
172.2,11.0409,1.5447,0.0140481
174.4,11.2499,1.5428,0.0150405
176.6,11.4583,1.54623,0.014445
178.8,11.6672,1.54732,0.0150413
181,11.8761,1.56003,0.0150072
183.2,12.0841,1.56357,0.01504
185.4,12.2924,1.56557,0.01504
187.6,12.5006,1.58015,0.01636
189.8,12.7085,1.58598,0.0157112
192,12.9171,1.60023,0.0153727
194.2,13.1257,1.60272,0.01504
196.4,13.3336,1.60168,0.0140366
198.6,13.5397,1.6167,0.0150396
200.8,13.7501,1.61614,0.0138311
203,13.9598,1.63064,0.01471
205.2,14.1679,1.63843,0.0147099
207.4,14.3759,1.63556,0.0144904
209.6,14.5832,1.63337,0.0146691
211.8,14.7927,1.6403,0.0133902
214,15.0017,1.64271,0.0137155
216.2,15.2107,1.64786,0.01438
218.4,15.4172,1.65675,0.01438
220.6,15.6268,1.65551,0.0143702
222.8,15.8339,1.65171,0.0127784
225,16.0418,1.66481,0.01339
227.2,16.2509,1.66425,0.0130681
229.4,16.4592,1.67402,0.0133884
231.6,16.6661,1.67314,0.0107496
233.8,16.8767,1.67818,0.0107502
236,17.0842,1.67904,0.00910981
238.2,17.293,1.68297,0.00911
240.4,17.5011,1.68197,0.00713691
242.6,17.7093,1.69821,0.00713984
244.8,17.9187,1.68644,0.00713218
247,18.1285,1.68332,0.00325145
249.2,18.3359,1.68612,0.00351
251.4,18.5437,1.69743,0.0021253
253.6,18.7514,1.69412,0.00111996
255.8,18.961,1.6929,-0.000439951
258,19.1693,1.70108,-0.00174983
260.2,19.3769,1.69759,-0.00571
262.4,19.5861,1.70701,-0.00734815
264.6,19.7952,1.71294,-0.00863807
266.8,20.0016,1.72977,-0.0121119
269,20.2139,1.73597,-0.016468
271.2,20.422,1.74154,-0.0179053
273.4,20.6325,1.74338,-0.0221907
275.6,20.8421,1.7531,-0.0259251
277.8,21.0527,1.76256,-0.0287673
280,21.2609,1.77003,-0.0343864
282.2,21.4714,1.78558,-0.0383079
284.4,21.6813,1.79235,-0.0445529
286.6,21.8906,1.80321,-0.0485477
288.8,22.1008,1.80793,-0.056434
291,22.3114,1.82366,-0.0617611
293.2,22.5207,1.83704,-0.0682109
295.4,22.7302,1.85239,-0.0753062
297.6,22.9392,1.866,-0.0815892
299.8,23.151,1.88633,-0.0904136
302,23.3608,1.9041,-0.0987434
304.2,23.5712,1.91267,-0.108473
306.4,23.7814,1.95225,-0.120261
308.6,23.9919,1.97344,-0.130224
310.8,24.2025,2.0059,-0.143027
313,24.4139,2.03952,-0.156944
315.2,24.6233,1.99587,-0.172583
317.4,24.8324,1.82666,-0.189066
319.6,25.0405,1.79635,-0.208136
321.8,25.2513,1.78868,-0.227476
324,25.4605,1.7948,-0.248666
326.2,25.6705,1.79936,-0.272286
328.4,25.8807,1.80914,-0.297809
330.6,26.092,1.81139,-0.32823
332.8,26.3031,1.83305,-0.358202
335,26.5138,1.83067,-0.391692
337.2,26.7235,1.8397,-0.430697
339.4,26.9363,1.82558,-0.472996
341.6,27.1475,1.81656,-0.520234
343.8,27.3568,1.7934,-0.570858
346,27.5701,1.76902,-0.625603
348.2,27.7827,1.74084,-0.68774
350.4,27.9939,1.70966,-0.761957
352.6,28.2053,1.68324,-0.842758
354.8,28.4173,1.67573,-0.934735
357,28.6294,1.69134,-1.03621
359.2,28.8413,1.68909,-1.13422
361.4,29.054,1.66712,-1.22801
363.6,29.2661,1.63788,-1.31262
365.8,29.4788,1.62324,-1.38422
368,29.6895,1.60048,-1.44321
370.2,29.9017,1.57764,-1.49628
372.4,30.1133,1.53613,-1.54489
374.6,30.325,1.50381,-1.58655
376.8,30.537,1.47749,-1.62363
379,30.7477,1.44837,-1.65683
381.2,30.9607,1.4203,-1.69005
383.4,31.1727,1.39768,-1.72065
385.6,31.385,1.37446,-1.74943
387.8,31.5957,1.36265,-1.77614
390,31.81,1.35119,-1.80558
392.2,32.0205,1.33355,-1.82877
394.4,32.2356,1.32676,-1.85682
396.6,32.45,1.31775,-1.88013
398.8,32.6631,1.30958,-1.90611
401,32.8759,1.30846,-1.93162
403.2,33.0897,1.3037,-1.95393
405.4,33.3036,1.30668,-1.98049
407.6,33.5175,1.31223,-2.00233
409.8,33.7316,1.31494,-2.02788
412,33.9464,1.32558,-2.0519
414.2,34.1595,1.32618,-2.07547
416.4,34.3752,1.33782,-2.09727
418.6,34.5897,1.34793,-2.12216
420.8,34.8051,1.3549,-2.14949
423,35.0198,1.3777,-2.17605
425.2,35.2351,1.39186,-2.20348
427.4,35.4496,1.41017,-2.23107
429.6,35.6648,1.42446,-2.25856
431.8,35.8802,1.44218,-2.28875
434,36.0953,1.45981,-2.32061
436.2,36.3102,1.48796,-2.35363
438.4,36.5264,1.51847,-2.38721
440.6,36.7433,1.55157,-2.42444
442.8,36.9573,1.57157,-2.46512
445,37.1749,1.59952,-2.50671
447.2,37.3896,1.6264,-2.54959
449.4,37.6062,1.6381,-2.59904
451.6,37.8223,1.6467,-2.64837
453.8,38.0369,1.65921,-2.69876
456,38.2539,1.64138,-2.75325
458.2,38.4677,1.62529,-2.8083
460.4,38.6857,1.58487,-2.86685
462.6,38.9013,1.54496,-2.92519
464.8,39.1187,1.4742,-2.98439
467,39.333,1.37385,-3.04169
469.2,39.5495,1.2744,-3.09852
471.4,39.7646,1.1373,-3.1532
473.6,39.9788,1.00404,-3.20093
475.8,40.1932,0.860145,-3.24434
478,40.4069,0.704705,-3.28159
480.2,40.6206,0.569988,-3.31392
482.4,40.8364,0.430669,-3.34008
484.6,41.051,0.315168,-3.35753
486.8,41.2665,0.238222,-3.37203
489,41.4827,0.191444,-3.38049
491.2,41.7,0.154772,-3.38624
493.4,41.9164,0.1174,-3.39019
495.6,42.1344,0.108985,-3.39258
497.8,42.3525,0.0980707,-3.39384
500,42.5695,0.0929955,-3.39516
502.2,42.787,0.0932125,-3.39778
504.4,43.0049,0.0806836,-3.39647
506.6,43.2203,0.0847178,-3.39482
508.8,43.44,0.0767726,-3.39614
511,43.6567,0.0737565,-3.39578
513.2,43.8755,0.0714045,-3.39745
515.4,44.0938,0.0743579,-3.39745
517.6,44.3113,0.0705773,-3.39745
519.8,44.528,0.0616126,-3.39877
522,44.745,0.0668229,-3.39877
524.2,44.9639,0.0743288,-3.39778
526.4,45.1821,0.0788373,-3.39778
528.6,45.4008,0.0878891,-3.3991
530.8,45.6211,0.0838984,-3.39911
533,45.8409,0.102427,-3.39778
535.2,46.0593,0.111173,-3.40041
537.4,46.2792,0.111429,-3.40041
539.6,46.4982,0.116917,-3.40041
541.8,46.718,0.118072,-3.40174
544,46.9378,0.11812,-3.40246
546.2,47.1545,0.113388,-3.40437
548.4,47.3743,0.110583,-3.40437
550.6,47.5941,0.118677,-3.40535
552.8,47.8138,0.119352,-3.40601
555,48.0298,0.128189,-3.40898
557.2,48.2516,0.135762,-3.40636
559.4,48.4717,0.143634,-3.40812
561.6,48.6918,0.141492,-3.41102
563.8,48.9112,0.140461,-3.41155
566,49.1328,0.117581,-3.41293
568.2,49.3512,0.0825471,-3.41461
570.4,49.5707,0.044126,-3.4159
572.6,49.7905,0.00484395,-3.41589
574.8,50.0111,-0.0163322,-3.41721
577,50.2311,-0.0231198,-3.41855
579.2,50.4508,-0.0347181,-3.41895
581.4,50.6705,-0.0376096,-3.41856
583.6,50.8899,-0.0305159,-3.41985
585.8,51.1103,-0.038649,-3.41985
588,51.3301,-0.0493935,-3.42116
590.2,51.5495,-0.0559609,-3.41991
592.4,51.769,-0.051262,-3.42116
594.6,51.9888,-0.0457994,-3.42116
596.8,52.209,-0.0442909,-3.42248
599,52.4286,-0.0370017,-3.42248
601.2,52.6478,-0.0380169,-3.4238
603.4,52.8702,-0.0245338,-3.42414
605.6,53.0912,-0.0181946,-3.4238
607.8,53.3121,-0.00527893,-3.42387
610,53.5336,0.00181632,-3.42512
612.2,53.7547,0.00359242,-3.42512
614.4,53.9761,0.00364176,-3.42512
616.6,54.1968,-0.000799637,-3.42601
618.8,54.4189,0.00386208,-3.42647
621,54.6398,0.021606,-3.42643
623.2,54.861,-0.0187056,-3.42783
625.4,55.0826,-0.0223691,-3.42874
627.6,55.305,-0.0307677,-3.42775
629.8,55.5265,-0.0274004,-3.4293
632,55.7484,-0.0199115,-3.43005
634.2,55.9698,-0.0298055,-3.43005
636.4,56.1923,-0.0407488,-3.42874
638.6,56.4147,-0.0310459,-3.43006
640.8,56.635,-0.042361,-3.43006
643,56.8573,-0.0404922,-3.43006
645.2,57.0788,-0.0351466,-3.43105
647.4,57.3011,-0.0358723,-3.43006
649.6,57.5236,-0.0505165,-3.43068
651.8,57.7455,-0.0388787,-3.43093
654,57.9653,-0.0451219,-3.43006
656.2,58.188,-0.0520282,-3.43119
658.4,58.4079,-0.0549387,-3.43203
660.6,58.6282,-0.0567641,-3.43039
662.8,58.8512,-0.0550182,-3.43008
665,59.0719,-0.0503428,-3.43038
667.2,59.2932,-0.049228,-3.43039
669.4,59.515,-0.0563266,-3.4311
671.6,59.7364,-0.0412379,-3.42973
673.8,59.9586,-0.0357778,-3.43072
676,60.1818,-0.0318175,-3.43111
678.2,60.4046,-0.0358846,-3.43138
680.4,60.627,-0.0366046,-3.43137
682.6,60.8487,-0.0253758,-3.43138
684.8,61.0701,-0.037609,-3.43269
687,61.2948,-0.0370996,-3.43268
689.2,61.5173,-0.0393383,-3.43176
690,61.5988,-0.0430271,-3.43302