File: 01_Data/Helmet_Brim_Edging/STA/N2/10K_min/Helmet_Brim_Edging_STA_N2_10KData_241010_R2.csv
Temp./C,Time/min,DSC/(mW/mg),Mass loss/mg
60.0,0.0,1.00672,0.00389126
62.2,0.24905,1.04975,0.0051851
64.4,0.489367,1.09754,0.00188829
66.6,0.726015,1.12733,0.00317897
68.8,0.959845,1.1404,0.00448678
71,1.1926,1.16175,0.00414987
73.2,1.42259,1.16877,0.0031791
75.4,1.65106,1.16995,0.00446319
77.6,1.8782,1.19913,0.00582611
79.8,2.10447,1.21887,0.00450763
82,2.33076,1.22802,0.00581976
84.2,2.55404,1.23515,0.00449989
86.4,2.77517,1.25779,0.00319021
88.6,2.99659,1.26959,0.0041699
90.8,3.21697,1.28407,0.00580475
93,3.4352,1.28935,0.00550796
95.2,3.65366,1.3065,0.00582278
97.4,3.87056,1.32189,0.0045
99.6,4.08619,1.32883,0.00582
101.8,4.30365,1.34181,0.00449868
104,4.5187,1.35749,0.00449212
106.2,4.73274,1.37835,0.00714099
108.4,4.94701,1.39926,0.00555004
110.6,5.16211,1.41578,0.00529063
112.8,5.37633,1.43727,0.00517044
115,5.5908,1.45566,0.00516102
117.2,5.80446,1.48919,0.0058326
119.4,6.01729,1.4973,0.00548888
121.6,6.22946,1.47632,0.00779
123.8,6.44338,1.48391,0.00778998
126,6.65527,1.50367,0.00788507
128.2,6.86832,1.51025,0.00944097
130.4,7.07978,1.5275,0.00847135
132.6,7.29348,1.54916,0.00802729
134.8,7.50358,1.58687,0.00713003
137,7.71635,1.63102,0.00909532
139.2,7.92867,1.68688,0.00709728
141.4,8.13989,1.75467,0.00811988
143.6,8.35187,1.85816,0.0107631
145.8,8.56456,1.97037,0.0107137
148,8.77525,2.10278,0.01076
150.2,8.98919,2.22428,0.0116047
152.4,9.20122,2.2978,0.0109493
154.6,9.4112,2.22662,0.0114198
156.8,9.61858,1.96516,0.00877763
159,9.82572,1.76212,0.0114102
161.2,10.035,1.66816,0.0127293
163.4,10.2428,1.6507,0.0114099
165.6,10.4547,1.64525,0.0101
167.8,10.6627,1.65965,0.0116585
170,10.8732,1.66054,0.01142
172.2,11.0802,1.67001,0.01043
174.4,11.2918,1.67795,0.011751
176.6,11.5018,1.67971,0.0120805
178.8,11.712,1.68443,0.0104361
181,11.9207,1.69211,0.0101
183.2,12.1301,1.69508,0.01043
185.4,12.3404,1.70305,0.0104266
187.6,12.5488,1.71639,0.0104308
189.8,12.7581,1.71186,0.00910947
192,12.9679,1.7177,0.010723
194.2,13.1764,1.72585,0.01043
196.4,13.3848,1.73649,0.0107547
198.6,13.5943,1.74574,0.01208
200.8,13.8025,1.74592,0.00943968
203,14.0128,1.74671,0.010871
205.2,14.2209,1.75559,0.0107602
207.4,14.4295,1.76039,0.0117507
209.6,14.6383,1.77115,0.0117356
211.8,14.847,1.77695,0.00944087
214,15.0551,1.78437,0.01042
216.2,15.2645,1.79294,0.00944
218.4,15.4736,1.79778,0.0101
220.6,15.6822,1.80887,0.0138112
222.8,15.8905,1.81528,0.0112
225,16.0971,1.82233,0.00849237
227.2,16.3088,1.82529,0.00725
229.4,16.5179,1.83361,0.00862346
231.6,16.7283,1.83774,0.00987034
233.8,16.9368,1.84412,0.00724976
236,17.1477,1.84289,0.00592976
238.2,17.3568,1.84597,0.00464243
240.4,17.5649,1.85697,0.00661854
242.6,17.7756,1.854,0.00659
244.8,17.9852,1.86085,0.00461055
247,18.1925,1.86308,0.00198
249.2,18.4029,1.87768,0.00109012
251.4,18.6131,1.8774,-0.00102497
253.6,18.822,1.89447,-0.00231174
255.8,19.0325,1.90213,-0.00231
258,19.2412,1.90267,-0.00503388
260.2,19.4513,1.91407,-0.0075718
262.4,19.6607,1.91774,-0.00888264
264.6,19.8709,1.92704,-0.0115126
266.8,20.0808,1.93254,-0.0128313
269,20.2914,1.94537,-0.01482
271.2,20.4999,1.95539,-0.0188028
273.4,20.711,1.96259,-0.0228291
275.6,20.9198,1.97616,-0.0252477
277.8,21.1296,1.98252,-0.0294607
280,21.3404,1.99834,-0.0328195
282.2,21.5505,2.01431,-0.0376654
284.4,21.7582,2.02642,-0.0424425
286.6,21.9716,2.03921,-0.0479636
288.8,22.1813,2.04464,-0.0517329
291,22.3921,2.06447,-0.0584288
293.2,22.6024,2.06865,-0.0670324
295.4,22.8131,2.08716,-0.0740689
297.6,23.0231,2.10644,-0.0809495
299.8,23.2339,2.12078,-0.0891448
302,23.4446,2.13549,-0.0982961
304.2,23.6551,2.16541,-0.109333
306.4,23.866,2.19556,-0.121823
308.6,24.0769,2.23006,-0.134307
310.8,24.2887,2.26421,-0.146073
313,24.4994,2.2779,-0.159977
315.2,24.7085,2.1599,-0.176084
317.4,24.9191,2.04773,-0.193208
319.6,25.1299,2.02485,-0.211287
321.8,25.3412,2.03175,-0.231703
324,25.5535,2.03248,-0.253953
326.2,25.764,2.04948,-0.280478
328.4,25.9773,2.05927,-0.30894
330.6,26.1887,2.06268,-0.337275
332.8,26.4004,2.07384,-0.370878
335,26.6126,2.0734,-0.404789
337.2,26.824,2.07523,-0.441853
339.4,27.0378,2.08603,-0.484648
341.6,27.2485,2.08121,-0.529053
343.8,27.4619,2.05664,-0.583471
346,27.6743,2.03085,-0.638666
348.2,27.8845,2.00938,-0.699186
350.4,28.0984,1.97586,-0.774138
352.6,28.3108,1.94896,-0.851377
354.8,28.5232,1.94099,-0.939322
357,28.7363,1.95015,-1.03221
359.2,28.9483,1.94434,-1.13135
361.4,29.1613,1.92969,-1.22528
363.6,29.3745,1.89384,-1.30885
365.8,29.5872,1.86054,-1.3839
368,29.7997,1.82283,-1.44896
370.2,30.0131,1.78273,-1.50715
372.4,30.2261,1.7353,-1.55509
374.6,30.4379,1.70155,-1.59675
376.8,30.6511,1.66405,-1.63374
379,30.8641,1.6327,-1.66749
381.2,31.078,1.61272,-1.70067
383.4,31.2901,1.58446,-1.73154
385.6,31.5036,1.56929,-1.75813
387.8,31.7163,1.5417,-1.78482
390,31.9312,1.52854,-1.81328
392.2,32.1453,1.51162,-1.83735
394.4,32.3593,1.49845,-1.86066
396.6,32.5726,1.4824,-1.88738
398.8,32.7861,1.47937,-1.911
401,33.0013,1.47354,-1.93173
403.2,33.2161,1.46843,-1.95404
405.4,33.43,1.48136,-1.97783
407.6,33.6447,1.47626,-2.00261
409.8,33.8608,1.48408,-2.02788
412,34.0756,1.49169,-2.04989
414.2,34.2913,1.49141,-2.07045
416.4,34.5055,1.50005,-2.0934
418.6,34.7203,1.50697,-2.11851
420.8,34.9356,1.51635,-2.14143
423,35.1509,1.51786,-2.16832
425.2,35.3664,1.53142,-2.19408
427.4,35.5815,1.54826,-2.2214
429.6,35.7975,1.5685,-2.24823
431.8,36.0133,1.5929,-2.27898
434,36.2301,1.60264,-2.31012
436.2,36.4464,1.64081,-2.34002
438.4,36.664,1.67313,-2.37514
440.6,36.8792,1.70115,-2.41031
442.8,37.0964,1.7164,-2.45016
445,37.3127,1.7314,-2.49206
447.2,37.5296,1.75019,-2.53347
449.4,37.7459,1.76745,-2.58201
451.6,37.9623,1.77323,-2.63001
453.8,38.1781,1.7735,-2.67809
456,38.3943,1.76982,-2.73068
458.2,38.6098,1.74173,-2.78489
460.4,38.8262,1.69115,-2.84126
462.6,39.0428,1.64431,-2.89754
464.8,39.2584,1.57723,-2.95386
467,39.4752,1.50147,-3.01005
469.2,39.6924,1.39334,-3.06235
471.4,39.9076,1.27254,-3.11381
473.6,40.1244,1.14897,-3.16057
475.8,40.3397,1.01884,-3.20277
478,40.5554,0.87077,-3.23527
480.2,40.7706,0.738854,-3.26697
482.4,40.9858,0.625446,-3.287
484.6,41.2015,0.515774,-3.30305
486.8,41.4158,0.44224,-3.31549
489,41.6346,0.397605,-3.32434
491.2,41.8514,0.364256,-3.32854
493.4,42.068,0.340085,-3.33254
495.6,42.2857,0.323803,-3.335
497.8,42.5035,0.306313,-3.33586
500,42.7202,0.297761,-3.33619
502.2,42.939,0.292583,-3.33619
504.4,43.1566,0.290268,-3.33883
506.6,43.3752,0.289892,-3.33888
508.8,43.5936,0.279952,-3.33673
511,43.8116,0.27648,-3.33913
513.2,44.0299,0.274151,-3.3363
515.4,44.2491,0.272419,-3.33633
517.6,44.4682,0.276558,-3.34027
519.8,44.6862,0.27907,-3.34026
522,44.906,0.278342,-3.33762
524.2,45.1245,0.279451,-3.33762
526.4,45.3425,0.282498,-3.33993
528.6,45.5623,0.278197,-3.33828
530.8,45.7812,0.299278,-3.33861
533,46.0008,0.310612,-3.33894
535.2,46.2197,0.321943,-3.34057
537.4,46.4378,0.323243,-3.33762
539.6,46.6573,0.332422,-3.33907
541.8,46.8766,0.327271,-3.34029
544,47.096,0.327573,-3.34033
546.2,47.3143,0.331424,-3.34158
548.4,47.5351,0.333239,-3.34295
550.6,47.7551,0.336611,-3.34289
552.8,47.9752,0.350386,-3.3452
555,48.1947,0.342931,-3.3456
557.2,48.4152,0.354559,-3.34495
559.4,48.635,0.357115,-3.34682
561.6,48.8526,0.351331,-3.34684
563.8,49.0742,0.328134,-3.34816
566,49.2936,0.287516,-3.35012
568.2,49.5141,0.251767,-3.35079
570.4,49.7332,0.21988,-3.34979
572.6,49.9529,0.199209,-3.35376
574.8,50.1723,0.191252,-3.35102
577,50.3933,0.193943,-3.35102
579.2,50.612,0.1971,-3.35069
581.4,50.8342,0.190635,-3.35332
583.6,51.0554,0.188148,-3.35215
585.8,51.2749,0.178331,-3.35508
588,51.4955,0.173796,-3.35475
590.2,51.7172,0.173753,-3.35475
592.4,51.9393,0.161063,-3.3564
594.6,52.1601,0.164063,-3.35503
596.8,52.3813,0.157987,-3.35276
599,52.6012,0.151832,-3.35639
601.2,52.8223,0.160169,-3.35665
603.4,53.0425,0.150896,-3.35538
605.6,53.265,0.152716,-3.3567
607.8,53.4848,0.152479,-3.35672
610,53.705,0.154951,-3.35804
612.2,53.9268,0.164495,-3.35573
614.4,54.1471,0.175189,-3.35672
616.6,54.3686,0.174652,-3.35936
618.8,54.5905,0.175792,-3.35936
621,54.8121,0.166845,-3.35933
623.2,55.0332,0.156755,-3.36067
625.4,55.2536,0.141166,-3.36001
627.6,55.4751,0.140566,-3.36133
629.8,55.6947,0.142094,-3.36133
632,55.916,0.129197,-3.36232
634.2,56.1381,0.124311,-3.36116
636.4,56.3576,0.108642,-3.36363
638.6,56.5801,0.0950582,-3.36491
640.8,56.8009,0.0879279,-3.36329
643,57.0222,0.0830082,-3.36463
645.2,57.2423,0.0792677,-3.36331
647.4,57.4644,0.0825135,-3.36463
649.6,57.6855,0.0826291,-3.3643
651.8,57.9089,0.0837446,-3.36397
654,58.1297,0.066167,-3.36265
656.2,58.3515,0.0560201,-3.36364
658.4,58.5722,0.0647137,-3.36367
660.6,58.7945,0.0639979,-3.36396
662.8,59.0164,0.0654717,-3.36331
665,59.2386,0.065547,-3.3646
667.2,59.4595,0.0672512,-3.36526
669.4,59.6827,0.0652673,-3.36759
671.6,59.9048,0.0583466,-3.36364
673.8,60.1254,0.052156,-3.36364
676,60.348,0.0548476,-3.36232
678.2,60.57,0.0513684,-3.36419
680.4,60.792,0.0472528,-3.36692
682.6,61.013,0.0414523,-3.36565
684.8,61.2346,0.0379848,-3.36528
687,61.4571,0.0331948,-3.36267
689.2,61.6788,0.0295051,-3.36423
690,61.76,0.0338471,-3.36371