File: 01_Data/High_Temp_Nylon_SCBA_Nosecup/STA/N2/30K_min/High_Temp_Nylon_SCBA_Nosecup_STA_N2_30KData_251014_R2.csv
Temp./C,Time/min,DSC/(mW/mg),Mass loss/mg
50.0,0.0,1.42652,0.02312
52.5,0.152948,1.67882,0.023026
55,0.290939,1.9007,0.0221333
57.5,0.418813,2.08159,0.0225479
60,0.540659,2.24184,0.0222412
62.5,0.656824,2.39363,0.0210107
65,0.768173,2.51371,0.0219868
67.5,0.876777,2.62941,0.0204651
70,0.981865,2.72618,0.0221925
72.5,1.08538,2.81835,0.020921
75,1.18746,2.9082,0.023219
77.5,1.28775,2.98182,0.0213647
80,1.38616,3.06001,0.02123
82.5,1.48303,3.13958,0.0214128
85,1.57908,3.22616,0.019637
87.5,1.67409,3.31389,0.0224498
90,1.76702,3.40209,0.0211887
92.5,1.86011,3.49583,0.0212178
95,1.95192,3.5743,0.0223904
97.5,2.04204,3.6577,0.0209218
100,2.13208,3.72619,0.0213729
102.5,2.22135,3.78308,0.0220601
105,2.30952,3.82224,0.0233919
107.5,2.39716,3.84725,0.0225426
110,2.48479,3.87014,0.0220741
112.5,2.57136,3.89867,0.022059
115,2.65814,3.93476,0.0233876
117.5,2.74475,3.97508,0.0234141
120,2.82939,4.01456,0.0233875
122.5,2.9149,4.07093,0.0220577
125,2.99944,4.12217,0.02338
127.5,3.08364,4.18001,0.0238765
130,3.16719,4.23553,0.0233207
132.5,3.25013,4.29612,0.0235096
135,3.33265,4.35127,0.0237105
137.5,3.41462,4.41915,0.0246994
140,3.4963,4.46676,0.0233797
142.5,3.57709,4.52264,0.0247
145,3.65818,4.58156,0.0247
147.5,3.73734,4.64195,0.0253349
150,3.81792,4.69256,0.0246996
152.5,3.89757,4.73874,0.0247
155,3.97692,4.79005,0.0247
157.5,4.05622,4.84774,0.0258905
160,4.13501,4.89798,0.0251223
162.5,4.21336,4.94756,0.02469
165,4.29173,4.99711,0.0233672
167.5,4.37033,5.03795,0.0252821
170,4.44798,5.07489,0.02568
172.5,4.52614,5.12167,0.02568
175,4.60348,5.16832,0.02568
177.5,4.681,5.21104,0.02568
180,4.75823,5.25012,0.027
182.5,4.83526,5.28438,0.0256898
185,4.91187,5.3228,0.02437
187.5,4.98833,5.36765,0.0243719
190,5.06493,5.40357,0.027
192.5,5.14079,5.4462,0.0263501
195,5.21665,5.47991,0.02503
197.5,5.29229,5.51424,0.02503
200,5.36808,5.56195,0.02503
202.5,5.44331,5.59872,0.02601
205,5.5189,5.63842,0.02601
207.5,5.59461,5.67842,0.02601
210,5.6698,5.7229,0.02601
212.5,5.74482,5.7738,0.02601
215,5.81985,5.82352,0.02601
217.5,5.89507,5.86494,0.0256122
220,5.96988,5.91364,0.02502
222.5,6.04538,5.97706,0.0261659
225,6.11969,6.03459,0.02634
227.5,6.19463,6.10083,0.0263383
230,6.26927,6.15805,0.02634
232.5,6.34409,6.21705,0.02634
235,6.41864,6.30293,0.0263491
237.5,6.49363,6.40784,0.02733
240,6.56851,6.54946,0.02733
242.5,6.64337,6.79023,0.0273293
245,6.71896,7.16666,0.02766
247.5,6.79575,7.86555,0.0289581
250,6.87359,8.95462,0.02898
252.5,6.95184,10.0552,0.0277488
255,7.02973,11.0561,0.02767
257.5,7.10611,11.6685,0.02767
260,7.17565,10.3286,0.02767
262.5,7.24462,8.67963,0.02865
265,7.3154,7.65673,0.02865
267.5,7.38691,7.03366,0.02865
270,7.45923,6.66275,0.02865
272.5,7.53151,6.43537,0.027658
275,7.60569,6.30832,0.02766
277.5,7.67859,6.22115,0.02766
280,7.7529,6.18135,0.0289833
282.5,7.82677,6.15785,0.02964
285,7.90065,6.12954,0.02964
287.5,7.97437,6.12707,0.0283203
290,8.04864,6.11003,0.02832
292.5,8.1227,6.09183,0.02832
295,8.19683,6.10249,0.02832
297.5,8.27105,6.09547,0.0283169
300,8.34507,6.0984,0.02964
302.5,8.4189,6.10585,0.0296399
305,8.49342,6.10627,0.02832
307.5,8.56758,6.11132,0.02832
310,8.6419,6.11708,0.02832
312.5,8.71627,6.10131,0.0283036
315,8.78975,6.1076,0.0296299
317.5,8.86497,6.0979,0.02832
320,8.93914,6.09179,0.02832
322.5,9.01366,6.08982,0.0280069
325,9.08801,6.09064,0.027
327.5,9.16286,6.08083,0.027
330,9.23719,6.08068,0.0271109
332.5,9.31185,6.07453,0.02601
335,9.38651,6.07403,0.024829
337.5,9.46128,6.08214,0.0256901
340,9.53611,6.0842,0.0243525
342.5,9.61117,6.08694,0.02437
345,9.68591,6.08412,0.0256896
347.5,9.76128,6.10313,0.02437
350,9.83599,6.10905,0.0223746
352.5,9.91137,6.13151,0.0228112
355,9.98654,6.15911,0.0223989
357.5,10.0616,6.18296,0.02108
360,10.1369,6.21988,0.0197481
362.5,10.2122,6.28026,0.0184384
365,10.2882,6.32478,0.0165515
367.5,10.3634,6.39522,0.0158296
370,10.4395,6.49589,0.0130571
372.5,10.5154,6.58457,0.0117347
375,10.5913,6.6888,0.00891425
377.5,10.6675,6.8018,0.00724457
380,10.7436,6.8807,0.00211497
382.5,10.8198,6.95862,-0.00269104
385,10.8956,7.0584,-0.00659979
387.5,10.9724,7.19493,-0.0134838
390,11.0488,7.35294,-0.0226157
392.5,11.1256,7.52131,-0.0286444
395,11.2023,7.75228,-0.0371346
397.5,11.2791,7.99741,-0.0484267
400,11.3564,8.2718,-0.0596287
402.5,11.4339,8.59419,-0.0739371
405,11.5114,8.94256,-0.0900031
407.5,11.5892,9.30862,-0.110848
410,11.6668,9.70194,-0.134484
412.5,11.7451,10.1268,-0.159794
415,11.8232,10.5441,-0.189649
417.5,11.9014,10.9794,-0.224663
420,11.9797,11.4152,-0.263342
422.5,12.058,11.8213,-0.307369
425,12.135,12.1314,-0.353599
427.5,12.2133,12.3518,-0.405234
430,12.2908,12.4462,-0.460617
432.5,12.3678,12.428,-0.517873
435,12.4445,12.3512,-0.577488
437.5,12.5212,12.2465,-0.636817
440,12.5983,12.1512,-0.700827
442.5,12.675,12.0744,-0.765099
445,12.7521,12.0328,-0.834254
447.5,12.8294,12.046,-0.910441
450,12.9068,12.0245,-0.985087
452.5,12.9839,11.9536,-1.06068
455,13.0608,11.8094,-1.14248
457.5,13.1376,11.5413,-1.22505
460,13.214,11.1588,-1.30214
462.5,13.2897,10.578,-1.37602
465,13.3653,9.83861,-1.44599
467.5,13.4402,8.99005,-1.51841
470,13.5148,8.09075,-1.58727
472.5,13.5899,7.24406,-1.65548
475,13.6652,6.49718,-1.70967
477.5,13.741,5.91891,-1.7619
480,13.8173,5.50196,-1.81173
482.5,13.8948,5.22784,-1.85767
485,13.9724,5.02976,-1.90227
487.5,14.0501,4.86352,-1.94909
490,14.1276,4.72336,-1.99593
492.5,14.2058,4.59095,-2.04006
495,14.2835,4.42719,-2.08713
497.5,14.3617,4.2421,-2.13548
500,14.4393,4.01142,-2.17816
502.5,14.5169,3.71908,-2.20061
505,14.5937,3.40204,-2.14656
507.5,14.6712,3.05137,-2.09052
510,14.7485,2.6399,-2.13421
512.5,14.8256,2.21417,-2.18965
515,14.9031,1.84091,-2.19132
517.5,14.9808,1.56613,-2.28061
520,15.0591,1.40046,-2.27754
522.5,15.1375,1.31728,-2.24795
525,15.2161,1.24782,-2.23916
527.5,15.295,1.25173,-2.25161
530,15.3736,1.2659,-2.28375
532.5,15.4527,1.27331,-2.27157
535,15.532,1.28309,-2.2771
537.5,15.6109,1.27174,-2.28742
540,15.6899,1.26708,-2.29814
542.5,15.7689,1.26712,-2.30545
545,15.8479,1.26932,-2.31393
547.5,15.9273,1.27604,-2.32286
550,16.0064,1.24423,-2.33115
552.5,16.0854,1.23249,-2.33987
555,16.165,1.22168,-2.35532
557.5,16.2444,1.22978,-2.35989
560,16.3239,1.22466,-2.36934
562.5,16.4031,1.22208,-2.37611
565,16.4831,1.20859,-2.38346
567.5,16.5627,1.20506,-2.38854
570,16.6421,1.19537,-2.3899
572.5,16.722,1.18231,-2.39217
575,16.802,1.16873,-2.39298
577.5,16.8816,1.14666,-2.40044
580,16.9619,1.14419,-2.42025
582.5,17.0419,1.12802,-2.41168
585,17.1222,1.11937,-2.4049
587.5,17.2019,1.11838,-2.40308
590,17.2827,1.10647,-2.40655
592.5,17.3631,1.11246,-2.41184
595,17.4437,1.09587,-2.42823
597.5,17.5243,1.08196,-2.43907
600,17.6052,1.06881,-2.41942
602.5,17.6861,1.04932,-2.41331
605,17.7671,1.0364,-2.41072
607.5,17.8483,1.02268,-2.41474
610,17.9291,1.00412,-2.42894
612.5,18.0103,1.00032,-2.43318
615,18.0912,0.982252,-2.4263
617.5,18.1725,0.965751,-2.40942
620,18.2535,0.955432,-2.41225
622.5,18.3349,0.956908,-2.41423
625,18.416,0.950356,-2.42753
627.5,18.4972,0.949466,-2.47218
630,18.5786,0.954351,-2.47614
632.5,18.6596,0.960118,-2.47406
635,18.7408,0.949132,-2.46637
637.5,18.8221,0.940131,-2.46205
640,18.9033,0.934297,-2.46079
642.5,18.9845,0.933104,-2.45335
645,19.0656,0.930913,-2.45029
647.5,19.1467,0.92094,-2.44126
650,19.2281,0.906237,-2.45806
652.5,19.3091,0.916266,-2.47693
655,19.3903,0.896704,-2.49094
657.5,19.4714,0.897121,-2.49579
660,19.5526,0.898187,-2.49174
662.5,19.6337,0.885014,-2.49306
665,19.7147,0.89951,-2.48922
667.5,19.7961,0.908166,-2.49217
670,19.8772,0.913804,-2.49298
672.5,19.9581,0.919983,-2.49505
675,20.0389,0.91134,-2.49416
677.5,20.1202,0.914036,-2.49727
680,20.201,0.909449,-2.49886
682.5,20.2823,0.894416,-2.49745
685,20.3634,0.877236,-2.49877
687.5,20.4445,0.861231,-2.49708
690,20.526,0.844495,-2.4942
692.5,20.6073,0.822954,-2.49295
695,20.6883,0.825349,-2.49031
697.5,20.7701,0.808095,-2.48899
700,20.8518,0.795652,-2.48899
702.5,20.9337,0.782776,-2.48768
705,21.0154,0.767848,-2.48505
707.5,21.0974,0.751615,-2.48505
710,21.1797,0.740044,-2.48373
712.5,21.2624,0.718205,-2.48105
715,21.345,0.714213,-2.47978
717.5,21.4279,0.699782,-2.47846
720,21.511,0.687232,-2.47846
722.5,21.5942,0.677741,-2.47846
725,21.6772,0.675082,-2.47582
727.5,21.7615,0.633906,-2.4745
730,21.8449,0.632901,-2.4722
732.5,21.9291,0.630549,-2.47184
735,22.0134,0.629693,-2.47187
737.5,22.0978,0.615731,-2.47122
740,22.1823,0.606336,-2.47056
742.5,22.2675,0.601879,-2.46792
745,22.3519,0.608327,-2.46792
747.5,22.4369,0.609371,-2.4655
750,22.522,0.631425,-2.46528
752.5,22.6071,0.633548,-2.46594
755,22.6924,0.622806,-2.46462
757.5,22.777,0.600468,-2.46461
760,22.862,0.568475,-2.46068
762.5,22.9469,0.528493,-2.46176
765,23.0311,0.483303,-2.46199
767.5,23.1161,0.426369,-2.45937
770,23.2004,0.376408,-2.45936
772.5,23.2849,0.308214,-2.45757
775,23.3692,0.238036,-2.45672
777.5,23.4536,0.174827,-2.45638
780,23.538,0.111141,-2.45672
782.5,23.6213,0.0389206,-2.4554
785,23.7061,-0.00310421,-2.4554
787.5,23.7901,-0.0693528,-2.45271
790,23.874,-0.106189,-2.45277