File: 01_Data/PEVA/FTIR/ATR/PEVA_ATR_240705_R1.0.dpt
4498.36,0.00139
4484.86,0.00118
4471.36,0.00132
4457.86,0.00140
4444.36,0.00146
4430.86,0.00142
4417.36,0.00143
4403.86,0.00143
4390.36,0.00155
4376.86,0.00160
4363.36,0.00159
4349.86,0.00153
4336.36,0.00188
4322.86,0.00163
4309.36,0.00150
4295.86,0.00168
4282.36,0.00161
4268.86,0.00182
4255.36,0.00168
4241.86,0.00173
4228.36,0.00158
4214.86,0.00174
4201.36,0.00178
4187.86,0.00168
4174.36,0.00168
4160.86,0.00173
4147.36,0.00189
4133.86,0.00173
4120.36,0.00154
4106.86,0.00173
4093.36,0.00138
4079.86,0.00178
4066.36,0.00167
4052.86,0.00152
4039.36,0.00151
4025.86,0.00158
4012.36,0.00164
3998.86,0.00165
3985.36,0.00149
3971.86,0.00153
3958.36,0.00160
3944.86,0.00166
3931.36,0.00143
3917.86,0.00152
3904.36,0.00176
3890.86,0.00173
3877.36,0.00162
3863.86,0.00140
3850.36,0.00133
3836.86,0.00137
3823.36,0.00153
3809.86,0.00146
3796.36,0.00138
3782.86,0.00147
3769.36,0.00153
3755.86,0.00136
3742.36,0.00142
3728.86,0.00130
3715.36,0.00138
3701.86,0.00148
3688.36,0.00160
3674.86,0.00161
3661.36,0.00144
3647.86,0.00133
3634.36,0.00146
3620.86,0.00159
3607.36,0.00126
3593.86,0.00160
3580.36,0.00165
3566.86,0.00180
3553.36,0.00185
3539.87,0.00187
3526.37,0.00192
3512.87,0.00206
3499.37,0.00184
3485.87,0.00196
3472.37,0.00200
3458.87,0.00212
3445.37,0.00220
3431.87,0.00233
3418.37,0.00241
3404.87,0.00234
3391.37,0.00222
3377.87,0.00185
3364.37,0.00209
3350.87,0.00193
3337.37,0.00188
3323.87,0.00194
3310.37,0.00212
3296.87,0.00208
3283.37,0.00202
3269.87,0.00201
3256.37,0.00196
3242.87,0.00180
3229.37,0.00176
3215.87,0.00188
3202.37,0.00178
3188.87,0.00184
3175.37,0.00184
3161.87,0.00190
3148.37,0.00176
3134.87,0.00196
3121.37,0.00179
3107.87,0.00181
3094.37,0.00208
3080.87,0.00213
3067.37,0.00223
3053.87,0.00232
3040.37,0.00218
3026.87,0.00232
3013.37,0.00267
2999.87,0.00360
2986.37,0.00619
2972.87,0.01427
2959.37,0.02364
2945.87,0.01739
2932.37,0.02460
2918.87,0.02296
2905.37,0.01767
2891.87,0.01138
2878.37,0.01259
2864.87,0.01396
2851.37,0.01160
2837.87,0.00549
2824.37,0.00401
2810.87,0.00331
2797.37,0.00263
2783.87,0.00246
2770.37,0.00227
2756.87,0.00233
2743.37,0.00241
2729.87,0.00232
2716.37,0.00226
2702.87,0.00208
2689.37,0.00219
2675.87,0.00213
2662.37,0.00212
2648.87,0.00222
2635.37,0.00202
2621.87,0.00213
2608.37,0.00199
2594.87,0.00196
2581.37,0.00190
2567.87,0.00185
2554.37,0.00192
2540.87,0.00186
2527.37,0.00200
2513.87,0.00186
2500.37,0.00172
2486.87,0.00171
2473.37,0.00163
2459.87,0.00170
2446.37,0.00159
2432.87,0.00155
2419.37,0.00153
2405.87,0.00155
2392.37,0.00156
2378.87,0.00158
2365.37,0.00112
2351.87,0.00146
2338.37,0.00116
2324.87,0.00194
2311.37,0.00167
2297.87,0.00147
2284.37,0.00172
2270.88,0.00177
2257.38,0.00171
2243.88,0.00179
2230.38,0.00124
2216.88,0.00089
2203.38,0.00120
2189.88,0.00131
2176.38,0.00058
2162.88,0.00103
2149.38,0.00016
2135.88,0.00001
2122.38,0.00083
2108.88,0.00139
2095.38,0.00130
2081.88,0.00125
2068.38,0.00115
2054.88,0.00104
2041.38,0.00109
2027.88,0.00129
2014.38,0.00150
2000.88,0.00079
1987.38,0.00157
1973.88,0.00141
1960.38,0.00109
1946.88,0.00106
1933.38,0.00172
1919.88,0.00146
1906.38,0.00134
1892.88,0.00129
1879.38,0.00126
1865.88,0.00129
1852.38,0.00138
1838.88,0.00147
1825.38,0.00187
1811.88,0.00183
1798.38,0.00198
1784.88,0.00232
1771.38,0.00270
1757.88,0.00351
1744.38,0.00652
1730.88,0.02557
1717.38,0.06056
1703.88,0.02479
1690.38,0.00695
1676.88,0.00566
1663.38,0.00436
1649.88,0.00382
1636.38,0.00414
1622.88,0.00354
1609.38,0.00381
1595.88,0.00330
1582.38,0.00408
1568.88,0.00398
1555.38,0.00378
1541.88,0.00334
1528.38,0.00368
1514.88,0.00376
1501.38,0.00498
1487.88,0.00418
1474.38,0.00853
1460.88,0.01993
1447.38,0.01199
1433.88,0.01994
1420.38,0.01487
1406.88,0.01724
1393.38,0.01080
1379.88,0.01809
1366.38,0.01066
1352.88,0.01225
1339.38,0.01638
1325.88,0.01883
1312.38,0.01784
1298.88,0.01953
1285.38,0.03713
1271.88,0.07459
1258.38,0.06580
1244.88,0.06668
1231.38,0.03634
1217.88,0.01656
1204.38,0.01607
1190.88,0.01357
1177.38,0.01109
1163.88,0.01163
1150.38,0.01193
1136.88,0.01324
1123.38,0.04232
1109.88,0.04619
1096.38,0.04317
1082.88,0.02537
1069.38,0.01536
1055.88,0.01258
1042.38,0.01143
1028.88,0.01262
1015.38,0.02312
1001.88,0.01449
988.385,0.01760
974.885,0.02438
961.385,0.03051
947.885,0.02621
934.386,0.01940
920.886,0.01749
907.386,0.01431
893.886,0.01180
880.386,0.01430
866.886,0.01416
853.386,0.01206
839.886,0.01216
826.386,0.01088
812.886,0.00796
799.387,0.00758
785.887,0.00883
772.387,0.00997
758.887,0.00797
745.387,0.00947
731.887,0.06456
718.387,0.01589
704.887,0.02126
691.387,0.02429
677.888,0.02357
664.388,0.01548
650.888,0.02485
637.388,0.04083
623.888,0.03754
610.388,0.04393
599.781,0.03292