File: 01_Data/PEVA/FTIR/ATR/PEVA_ATR_240705_R7.0.dpt
4498.36,0.00135
4484.86,0.00152
4471.36,0.00144
4457.86,0.00162
4444.36,0.00158
4430.86,0.00155
4417.36,0.00134
4403.86,0.00177
4390.36,0.00194
4376.86,0.00171
4363.36,0.00152
4349.86,0.00159
4336.36,0.00170
4322.86,0.00170
4309.36,0.00156
4295.86,0.00164
4282.36,0.00163
4268.86,0.00172
4255.36,0.00172
4241.86,0.00140
4228.36,0.00159
4214.86,0.00151
4201.36,0.00160
4187.86,0.00162
4174.36,0.00164
4160.86,0.00164
4147.36,0.00167
4133.86,0.00160
4120.36,0.00153
4106.86,0.00164
4093.36,0.00168
4079.86,0.00175
4066.36,0.00155
4052.86,0.00166
4039.36,0.00153
4025.86,0.00166
4012.36,0.00155
3998.86,0.00147
3985.36,0.00159
3971.86,0.00161
3958.36,0.00150
3944.86,0.00159
3931.36,0.00147
3917.86,0.00150
3904.36,0.00141
3890.86,0.00136
3877.36,0.00164
3863.86,0.00144
3850.36,0.00141
3836.86,0.00156
3823.36,0.00150
3809.86,0.00158
3796.36,0.00147
3782.86,0.00162
3769.36,0.00139
3755.86,0.00151
3742.36,0.00158
3728.86,0.00152
3715.36,0.00158
3701.86,0.00155
3688.36,0.00145
3674.86,0.00135
3661.36,0.00167
3647.86,0.00156
3634.36,0.00191
3620.86,0.00169
3607.36,0.00183
3593.86,0.00184
3580.36,0.00204
3566.86,0.00208
3553.36,0.00224
3539.87,0.00232
3526.37,0.00217
3512.87,0.00231
3499.37,0.00245
3485.87,0.00249
3472.37,0.00261
3458.87,0.00256
3445.37,0.00244
3431.87,0.00295
3418.37,0.00275
3404.87,0.00285
3391.37,0.00274
3377.87,0.00270
3364.37,0.00258
3350.87,0.00261
3337.37,0.00252
3323.87,0.00275
3310.37,0.00273
3296.87,0.00288
3283.37,0.00262
3269.87,0.00263
3256.37,0.00240
3242.87,0.00231
3229.37,0.00211
3215.87,0.00225
3202.37,0.00226
3188.87,0.00202
3175.37,0.00198
3161.87,0.00211
3148.37,0.00205
3134.87,0.00189
3121.37,0.00186
3107.87,0.00192
3094.37,0.00181
3080.87,0.00209
3067.37,0.00187
3053.87,0.00200
3040.37,0.00178
3026.87,0.00195
3013.37,0.00202
2999.87,0.00237
2986.37,0.00350
2972.87,0.00678
2959.37,0.01087
2945.87,0.00820
2932.37,0.01081
2918.87,0.01136
2905.37,0.00832
2891.87,0.00568
2878.37,0.00615
2864.87,0.00670
2851.37,0.00616
2837.87,0.00318
2824.37,0.00250
2810.87,0.00225
2797.37,0.00196
2783.87,0.00180
2770.37,0.00172
2756.87,0.00176
2743.37,0.00181
2729.87,0.00187
2716.37,0.00168
2702.87,0.00170
2689.37,0.00162
2675.87,0.00170
2662.37,0.00171
2648.87,0.00167
2635.37,0.00177
2621.87,0.00180
2608.37,0.00186
2594.87,0.00183
2581.37,0.00177
2567.87,0.00158
2554.37,0.00166
2540.87,0.00160
2527.37,0.00157
2513.87,0.00172
2500.37,0.00153
2486.87,0.00157
2473.37,0.00154
2459.87,0.00169
2446.37,0.00154
2432.87,0.00155
2419.37,0.00163
2405.87,0.00152
2392.37,0.00155
2378.87,0.00145
2365.37,0.00088
2351.87,0.00116
2338.37,0.00110
2324.87,0.00172
2311.37,0.00190
2297.87,0.00171
2284.37,0.00201
2270.88,0.00210
2257.38,0.00180
2243.88,0.00240
2230.38,0.00253
2216.88,0.00275
2203.38,0.00267
2189.88,0.00258
2176.38,0.00314
2162.88,0.00286
2149.38,0.00274
2135.88,0.00227
2122.38,0.00201
2108.88,0.00203
2095.38,0.00168
2081.88,0.00197
2068.38,0.00212
2054.88,0.00246
2041.38,0.00278
2027.88,0.00266
2014.38,0.00286
2000.88,0.00255
1987.38,0.00236
1973.88,0.00225
1960.38,0.00250
1946.88,0.00169
1933.38,0.00199
1919.88,0.00195
1906.38,0.00194
1892.88,0.00150
1879.38,0.00163
1865.88,0.00160
1852.38,0.00148
1838.88,0.00162
1825.38,0.00181
1811.88,0.00149
1798.38,0.00176
1784.88,0.00167
1771.38,0.00179
1757.88,0.00219
1744.38,0.00309
1730.88,0.01141
1717.38,0.02593
1703.88,0.01124
1690.38,0.00389
1676.88,0.00343
1663.38,0.00292
1649.88,0.00279
1636.38,0.00323
1622.88,0.00271
1609.38,0.00293
1595.88,0.00274
1582.38,0.00310
1568.88,0.00292
1555.38,0.00271
1541.88,0.00228
1528.38,0.00232
1514.88,0.00216
1501.38,0.00290
1487.88,0.00255
1474.38,0.00460
1460.88,0.00959
1447.38,0.00593
1433.88,0.00948
1420.38,0.00716
1406.88,0.00829
1393.38,0.00551
1379.88,0.00881
1366.38,0.00555
1352.88,0.00625
1339.38,0.00782
1325.88,0.00901
1312.38,0.00852
1298.88,0.00916
1285.38,0.01688
1271.88,0.03267
1258.38,0.02886
1244.88,0.02935
1231.38,0.01664
1217.88,0.00821
1204.38,0.00785
1190.88,0.00667
1177.38,0.00573
1163.88,0.00573
1150.38,0.00618
1136.88,0.00683
1123.38,0.01946
1109.88,0.02122
1096.38,0.01996
1082.88,0.01223
1069.38,0.00776
1055.88,0.00673
1042.38,0.00609
1028.88,0.00652
1015.38,0.01140
1001.88,0.00730
988.385,0.00873
974.885,0.01179
961.385,0.01462
947.885,0.01274
934.386,0.00980
920.886,0.00884
907.386,0.00749
893.886,0.00662
880.386,0.00785
866.886,0.00768
853.386,0.00661
839.886,0.00689
826.386,0.00609
812.886,0.00507
799.387,0.00500
785.887,0.00534
772.387,0.00606
758.887,0.00474
745.387,0.00504
731.887,0.02909
718.387,0.00879
704.887,0.01098
691.387,0.01288
677.888,0.01142
664.388,0.00772
650.888,0.01257
637.388,0.01868
623.888,0.01965
610.388,0.02016
599.781,0.01571