File: 01_Data/PEVA/FTIR/ATR/PEVA_ATR_240705_R4.0.dpt
4498.36,0.00141
4484.86,0.00123
4471.36,0.00142
4457.86,0.00159
4444.36,0.00141
4430.86,0.00159
4417.36,0.00125
4403.86,0.00161
4390.36,0.00160
4376.86,0.00157
4363.36,0.00143
4349.86,0.00164
4336.36,0.00198
4322.86,0.00161
4309.36,0.00170
4295.86,0.00175
4282.36,0.00146
4268.86,0.00157
4255.36,0.00157
4241.86,0.00164
4228.36,0.00173
4214.86,0.00188
4201.36,0.00175
4187.86,0.00177
4174.36,0.00156
4160.86,0.00159
4147.36,0.00170
4133.86,0.00180
4120.36,0.00161
4106.86,0.00162
4093.36,0.00180
4079.86,0.00172
4066.36,0.00172
4052.86,0.00152
4039.36,0.00137
4025.86,0.00146
4012.36,0.00173
3998.86,0.00152
3985.36,0.00159
3971.86,0.00158
3958.36,0.00140
3944.86,0.00145
3931.36,0.00156
3917.86,0.00158
3904.36,0.00140
3890.86,0.00151
3877.36,0.00140
3863.86,0.00153
3850.36,0.00135
3836.86,0.00144
3823.36,0.00141
3809.86,0.00155
3796.36,0.00128
3782.86,0.00142
3769.36,0.00137
3755.86,0.00147
3742.36,0.00153
3728.86,0.00157
3715.36,0.00140
3701.86,0.00129
3688.36,0.00150
3674.86,0.00148
3661.36,0.00140
3647.86,0.00136
3634.36,0.00161
3620.86,0.00133
3607.36,0.00159
3593.86,0.00150
3580.36,0.00171
3566.86,0.00152
3553.36,0.00155
3539.87,0.00175
3526.37,0.00171
3512.87,0.00168
3499.37,0.00183
3485.87,0.00179
3472.37,0.00172
3458.87,0.00183
3445.37,0.00175
3431.87,0.00210
3418.37,0.00221
3404.87,0.00199
3391.37,0.00211
3377.87,0.00173
3364.37,0.00208
3350.87,0.00169
3337.37,0.00176
3323.87,0.00210
3310.37,0.00245
3296.87,0.00261
3283.37,0.00227
3269.87,0.00213
3256.37,0.00182
3242.87,0.00184
3229.37,0.00165
3215.87,0.00162
3202.37,0.00166
3188.87,0.00165
3175.37,0.00179
3161.87,0.00173
3148.37,0.00161
3134.87,0.00156
3121.37,0.00163
3107.87,0.00186
3094.37,0.00188
3080.87,0.00204
3067.37,0.00200
3053.87,0.00203
3040.37,0.00195
3026.87,0.00216
3013.37,0.00237
2999.87,0.00302
2986.37,0.00517
2972.87,0.01112
2959.37,0.01844
2945.87,0.01373
2932.37,0.01953
2918.87,0.02104
2905.37,0.01473
2891.87,0.00951
2878.37,0.01008
2864.87,0.01137
2851.37,0.01128
2837.87,0.00469
2824.37,0.00340
2810.87,0.00291
2797.37,0.00246
2783.87,0.00216
2770.37,0.00209
2756.87,0.00212
2743.37,0.00225
2729.87,0.00217
2716.37,0.00206
2702.87,0.00193
2689.37,0.00187
2675.87,0.00194
2662.37,0.00206
2648.87,0.00208
2635.37,0.00200
2621.87,0.00199
2608.37,0.00206
2594.87,0.00202
2581.37,0.00197
2567.87,0.00197
2554.37,0.00196
2540.87,0.00189
2527.37,0.00186
2513.87,0.00193
2500.37,0.00185
2486.87,0.00186
2473.37,0.00173
2459.87,0.00161
2446.37,0.00177
2432.87,0.00182
2419.37,0.00180
2405.87,0.00183
2392.37,0.00159
2378.87,0.00165
2365.37,0.00132
2351.87,0.00163
2338.37,0.00151
2324.87,0.00195
2311.37,0.00187
2297.87,0.00180
2284.37,0.00235
2270.88,0.00220
2257.38,0.00243
2243.88,0.00231
2230.38,0.00216
2216.88,0.00233
2203.38,0.00248
2189.88,0.00249
2176.38,0.00283
2162.88,0.00355
2149.38,0.00223
2135.88,0.00143
2122.38,0.00159
2108.88,0.00207
2095.38,0.00205
2081.88,0.00209
2068.38,0.00222
2054.88,0.00209
2041.38,0.00268
2027.88,0.00259
2014.38,0.00183
2000.88,0.00214
1987.38,0.00233
1973.88,0.00165
1960.38,0.00202
1946.88,0.00216
1933.38,0.00218
1919.88,0.00164
1906.38,0.00185
1892.88,0.00164
1879.38,0.00118
1865.88,0.00153
1852.38,0.00167
1838.88,0.00164
1825.38,0.00193
1811.88,0.00192
1798.38,0.00177
1784.88,0.00211
1771.38,0.00225
1757.88,0.00298
1744.38,0.00505
1730.88,0.01939
1717.38,0.04562
1703.88,0.01892
1690.38,0.00540
1676.88,0.00440
1663.38,0.00338
1649.88,0.00324
1636.38,0.00387
1622.88,0.00299
1609.38,0.00316
1595.88,0.00283
1582.38,0.00366
1568.88,0.00372
1555.38,0.00330
1541.88,0.00322
1528.38,0.00315
1514.88,0.00295
1501.38,0.00412
1487.88,0.00335
1474.38,0.00696
1460.88,0.01553
1447.38,0.00942
1433.88,0.01563
1420.38,0.01159
1406.88,0.01339
1393.38,0.00844
1379.88,0.01412
1366.38,0.00846
1352.88,0.00977
1339.38,0.01287
1325.88,0.01473
1312.38,0.01395
1298.88,0.01516
1285.38,0.02843
1271.88,0.05633
1258.38,0.04981
1244.88,0.05048
1231.38,0.02799
1217.88,0.01295
1204.38,0.01256
1190.88,0.01057
1177.38,0.00873
1163.88,0.00902
1150.38,0.00942
1136.88,0.01044
1123.38,0.03200
1109.88,0.03503
1096.38,0.03339
1082.88,0.01955
1069.38,0.01177
1055.88,0.00969
1042.38,0.00907
1028.88,0.00997
1015.38,0.01795
1001.88,0.01135
988.385,0.01368
974.885,0.01874
961.385,0.02400
947.885,0.02043
934.386,0.01545
920.886,0.01385
907.386,0.01150
893.886,0.00963
880.386,0.01122
866.886,0.01120
853.386,0.00993
839.886,0.00989
826.386,0.00896
812.886,0.00645
799.387,0.00600
785.887,0.00725
772.387,0.00839
758.887,0.00700
745.387,0.00674
731.887,0.04969
718.387,0.01327
704.887,0.01636
691.387,0.01961
677.888,0.01902
664.388,0.01346
650.888,0.01955
637.388,0.03091
623.888,0.03035
610.388,0.03436
599.781,0.02538