File: 01_Data/PEVA/FTIR/ATR/PEVA_ATR_240705_R5.0.dpt
4498.36,0.00137
4484.86,0.00154
4471.36,0.00139
4457.86,0.00141
4444.36,0.00165
4430.86,0.00163
4417.36,0.00151
4403.86,0.00156
4390.36,0.00177
4376.86,0.00174
4363.36,0.00172
4349.86,0.00180
4336.36,0.00185
4322.86,0.00179
4309.36,0.00173
4295.86,0.00172
4282.36,0.00181
4268.86,0.00178
4255.36,0.00176
4241.86,0.00186
4228.36,0.00163
4214.86,0.00172
4201.36,0.00169
4187.86,0.00167
4174.36,0.00189
4160.86,0.00186
4147.36,0.00182
4133.86,0.00167
4120.36,0.00159
4106.86,0.00177
4093.36,0.00161
4079.86,0.00184
4066.36,0.00179
4052.86,0.00166
4039.36,0.00148
4025.86,0.00170
4012.36,0.00164
3998.86,0.00151
3985.36,0.00161
3971.86,0.00159
3958.36,0.00150
3944.86,0.00169
3931.36,0.00175
3917.86,0.00149
3904.36,0.00131
3890.86,0.00165
3877.36,0.00167
3863.86,0.00165
3850.36,0.00158
3836.86,0.00169
3823.36,0.00163
3809.86,0.00162
3796.36,0.00166
3782.86,0.00183
3769.36,0.00156
3755.86,0.00163
3742.36,0.00161
3728.86,0.00161
3715.36,0.00161
3701.86,0.00165
3688.36,0.00180
3674.86,0.00183
3661.36,0.00162
3647.86,0.00161
3634.36,0.00162
3620.86,0.00157
3607.36,0.00162
3593.86,0.00180
3580.36,0.00182
3566.86,0.00187
3553.36,0.00189
3539.87,0.00170
3526.37,0.00179
3512.87,0.00197
3499.37,0.00189
3485.87,0.00192
3472.37,0.00201
3458.87,0.00188
3445.37,0.00199
3431.87,0.00205
3418.37,0.00212
3404.87,0.00212
3391.37,0.00186
3377.87,0.00180
3364.37,0.00174
3350.87,0.00187
3337.37,0.00196
3323.87,0.00211
3310.37,0.00232
3296.87,0.00249
3283.37,0.00208
3269.87,0.00191
3256.37,0.00197
3242.87,0.00177
3229.37,0.00200
3215.87,0.00188
3202.37,0.00185
3188.87,0.00172
3175.37,0.00172
3161.87,0.00155
3148.37,0.00167
3134.87,0.00167
3121.37,0.00178
3107.87,0.00169
3094.37,0.00169
3080.87,0.00177
3067.37,0.00196
3053.87,0.00191
3040.37,0.00183
3026.87,0.00193
3013.37,0.00207
2999.87,0.00257
2986.37,0.00418
2972.87,0.00858
2959.37,0.01411
2945.87,0.01039
2932.37,0.01475
2918.87,0.01631
2905.37,0.01123
2891.87,0.00749
2878.37,0.00797
2864.87,0.00871
2851.37,0.00876
2837.87,0.00387
2824.37,0.00281
2810.87,0.00252
2797.37,0.00221
2783.87,0.00207
2770.37,0.00195
2756.87,0.00202
2743.37,0.00200
2729.87,0.00193
2716.37,0.00183
2702.87,0.00176
2689.37,0.00171
2675.87,0.00176
2662.37,0.00183
2648.87,0.00190
2635.37,0.00185
2621.87,0.00189
2608.37,0.00179
2594.87,0.00181
2581.37,0.00172
2567.87,0.00169
2554.37,0.00171
2540.87,0.00178
2527.37,0.00186
2513.87,0.00171
2500.37,0.00181
2486.87,0.00159
2473.37,0.00166
2459.87,0.00153
2446.37,0.00151
2432.87,0.00142
2419.37,0.00160
2405.87,0.00151
2392.37,0.00142
2378.87,0.00137
2365.37,0.00061
2351.87,0.00119
2338.37,0.00084
2324.87,0.00155
2311.37,0.00165
2297.87,0.00175
2284.37,0.00219
2270.88,0.00219
2257.38,0.00254
2243.88,0.00203
2230.38,0.00237
2216.88,0.00253
2203.38,0.00238
2189.88,0.00294
2176.38,0.00251
2162.88,0.00339
2149.38,0.00230
2135.88,0.00175
2122.38,0.00168
2108.88,0.00168
2095.38,0.00151
2081.88,0.00229
2068.38,0.00194
2054.88,0.00208
2041.38,0.00306
2027.88,0.00267
2014.38,0.00251
2000.88,0.00160
1987.38,0.00239
1973.88,0.00193
1960.38,0.00264
1946.88,0.00178
1933.38,0.00191
1919.88,0.00170
1906.38,0.00152
1892.88,0.00136
1879.38,0.00152
1865.88,0.00163
1852.38,0.00140
1838.88,0.00153
1825.38,0.00171
1811.88,0.00169
1798.38,0.00171
1784.88,0.00192
1771.38,0.00201
1757.88,0.00246
1744.38,0.00409
1730.88,0.01497
1717.38,0.03379
1703.88,0.01429
1690.38,0.00435
1676.88,0.00356
1663.38,0.00273
1649.88,0.00256
1636.38,0.00324
1622.88,0.00252
1609.38,0.00264
1595.88,0.00243
1582.38,0.00295
1568.88,0.00296
1555.38,0.00294
1541.88,0.00308
1528.38,0.00275
1514.88,0.00247
1501.38,0.00324
1487.88,0.00265
1474.38,0.00532
1460.88,0.01183
1447.38,0.00737
1433.88,0.01182
1420.38,0.00885
1406.88,0.01021
1393.38,0.00666
1379.88,0.01066
1366.38,0.00655
1352.88,0.00738
1339.38,0.00984
1325.88,0.01124
1312.38,0.01070
1298.88,0.01161
1285.38,0.02155
1271.88,0.04215
1258.38,0.03728
1244.88,0.03797
1231.38,0.02132
1217.88,0.00996
1204.38,0.00971
1190.88,0.00839
1177.38,0.00697
1163.88,0.00708
1150.38,0.00738
1136.88,0.00801
1123.38,0.02434
1109.88,0.02685
1096.38,0.02538
1082.88,0.01510
1069.38,0.00962
1055.88,0.00762
1042.38,0.00715
1028.88,0.00788
1015.38,0.01390
1001.88,0.00892
988.385,0.01069
974.885,0.01450
961.385,0.01841
947.885,0.01545
934.386,0.01210
920.886,0.01066
907.386,0.00918
893.886,0.00788
880.386,0.00896
866.886,0.00864
853.386,0.00762
839.886,0.00779
826.386,0.00728
812.886,0.00538
799.387,0.00500
785.887,0.00607
772.387,0.00679
758.887,0.00467
745.387,0.00466
731.887,0.03725
718.387,0.00993
704.887,0.01308
691.387,0.01499
677.888,0.01394
664.388,0.00935
650.888,0.01479
637.388,0.02321
623.888,0.02326
610.388,0.02584
599.781,0.01937