File: 01_Data/PEVA/FTIR/ATR/PEVA_ATR_240705_R2.0.dpt
4498.36,0.00118
4484.86,0.00108
4471.36,0.00123
4457.86,0.00105
4444.36,0.00092
4430.86,0.00132
4417.36,0.00106
4403.86,0.00111
4390.36,0.00115
4376.86,0.00114
4363.36,0.00122
4349.86,0.00134
4336.36,0.00152
4322.86,0.00139
4309.36,0.00115
4295.86,0.00148
4282.36,0.00131
4268.86,0.00133
4255.36,0.00128
4241.86,0.00113
4228.36,0.00140
4214.86,0.00138
4201.36,0.00135
4187.86,0.00117
4174.36,0.00132
4160.86,0.00116
4147.36,0.00118
4133.86,0.00123
4120.36,0.00120
4106.86,0.00117
4093.36,0.00119
4079.86,0.00144
4066.36,0.00138
4052.86,0.00111
4039.36,0.00124
4025.86,0.00110
4012.36,0.00124
3998.86,0.00120
3985.36,0.00110
3971.86,0.00118
3958.36,0.00119
3944.86,0.00124
3931.36,0.00105
3917.86,0.00141
3904.36,0.00111
3890.86,0.00104
3877.36,0.00112
3863.86,0.00117
3850.36,0.00115
3836.86,0.00116
3823.36,0.00118
3809.86,0.00111
3796.36,0.00112
3782.86,0.00112
3769.36,0.00114
3755.86,0.00104
3742.36,0.00098
3728.86,0.00084
3715.36,0.00092
3701.86,0.00104
3688.36,0.00104
3674.86,0.00096
3661.36,0.00110
3647.86,0.00078
3634.36,0.00107
3620.86,0.00100
3607.36,0.00102
3593.86,0.00088
3580.36,0.00103
3566.86,0.00126
3553.36,0.00107
3539.87,0.00099
3526.37,0.00097
3512.87,0.00125
3499.37,0.00096
3485.87,0.00117
3472.37,0.00133
3458.87,0.00117
3445.37,0.00125
3431.87,0.00122
3418.37,0.00108
3404.87,0.00109
3391.37,0.00120
3377.87,0.00116
3364.37,0.00119
3350.87,0.00109
3337.37,0.00102
3323.87,0.00109
3310.37,0.00107
3296.87,0.00116
3283.37,0.00107
3269.87,0.00101
3256.37,0.00107
3242.87,0.00092
3229.37,0.00101
3215.87,0.00117
3202.37,0.00103
3188.87,0.00101
3175.37,0.00119
3161.87,0.00111
3148.37,0.00110
3134.87,0.00129
3121.37,0.00133
3107.87,0.00128
3094.37,0.00128
3080.87,0.00141
3067.37,0.00146
3053.87,0.00154
3040.37,0.00140
3026.87,0.00158
3013.37,0.00172
2999.87,0.00228
2986.37,0.00372
2972.87,0.00828
2959.37,0.01349
2945.87,0.00986
2932.37,0.01353
2918.87,0.01236
2905.37,0.01000
2891.87,0.00650
2878.37,0.00745
2864.87,0.00803
2851.37,0.00612
2837.87,0.00317
2824.37,0.00245
2810.87,0.00217
2797.37,0.00177
2783.87,0.00171
2770.37,0.00167
2756.87,0.00161
2743.37,0.00172
2729.87,0.00176
2716.37,0.00164
2702.87,0.00160
2689.37,0.00156
2675.87,0.00152
2662.37,0.00157
2648.87,0.00148
2635.37,0.00151
2621.87,0.00142
2608.37,0.00141
2594.87,0.00150
2581.37,0.00155
2567.87,0.00114
2554.37,0.00140
2540.87,0.00122
2527.37,0.00122
2513.87,0.00115
2500.37,0.00125
2486.87,0.00109
2473.37,0.00107
2459.87,0.00109
2446.37,0.00099
2432.87,0.00110
2419.37,0.00102
2405.87,0.00093
2392.37,0.00110
2378.87,0.00106
2365.37,0.00103
2351.87,0.00102
2338.37,0.00096
2324.87,0.00149
2311.37,0.00105
2297.87,0.00109
2284.37,0.00117
2270.88,0.00050
2257.38,0.00079
2243.88,0.00038
2230.38,0.00031
2216.88,-0.00003
2203.38,-0.00031
2189.88,0.00009
2176.38,-0.00042
2162.88,-0.00043
2149.38,-0.00119
2135.88,-0.00087
2122.38,0.00014
2108.88,0.00029
2095.38,0.00020
2081.88,0.00053
2068.38,0.00025
2054.88,-0.00010
2041.38,-0.00034
2027.88,-0.00083
2014.38,-0.00065
2000.88,-0.00025
1987.38,-0.00024
1973.88,-0.00094
1960.38,-0.00052
1946.88,0.00046
1933.38,0.00008
1919.88,0.00029
1906.38,0.00032
1892.88,0.00053
1879.38,0.00052
1865.88,0.00060
1852.38,0.00083
1838.88,0.00108
1825.38,0.00119
1811.88,0.00128
1798.38,0.00140
1784.88,0.00143
1771.38,0.00169
1757.88,0.00208
1744.38,0.00367
1730.88,0.01491
1717.38,0.03495
1703.88,0.01439
1690.38,0.00418
1676.88,0.00348
1663.38,0.00251
1649.88,0.00219
1636.38,0.00251
1622.88,0.00214
1609.38,0.00234
1595.88,0.00207
1582.38,0.00255
1568.88,0.00258
1555.38,0.00231
1541.88,0.00235
1528.38,0.00229
1514.88,0.00248
1501.38,0.00310
1487.88,0.00280
1474.38,0.00534
1460.88,0.01180
1447.38,0.00711
1433.88,0.01183
1420.38,0.00910
1406.88,0.01026
1393.38,0.00650
1379.88,0.01082
1366.38,0.00658
1352.88,0.00741
1339.38,0.00972
1325.88,0.01123
1312.38,0.01064
1298.88,0.01153
1285.38,0.02180
1271.88,0.04336
1258.38,0.03846
1244.88,0.03911
1231.38,0.02128
1217.88,0.00980
1204.38,0.00952
1190.88,0.00822
1177.38,0.00662
1163.88,0.00675
1150.38,0.00712
1136.88,0.00794
1123.38,0.02460
1109.88,0.02731
1096.38,0.02551
1082.88,0.01477
1069.38,0.00890
1055.88,0.00740
1042.38,0.00651
1028.88,0.00749
1015.38,0.01356
1001.88,0.00849
988.385,0.01058
974.885,0.01463
961.385,0.01820
947.885,0.01568
934.386,0.01179
920.886,0.01037
907.386,0.00849
893.886,0.00695
880.386,0.00829
866.886,0.00813
853.386,0.00708
839.886,0.00726
826.386,0.00663
812.886,0.00457
799.387,0.00463
785.887,0.00534
772.387,0.00605
758.887,0.00458
745.387,0.00507
731.887,0.03788
718.387,0.00987
704.887,0.01228
691.387,0.01485
677.888,0.01424
664.388,0.00917
650.888,0.01441
637.388,0.02377
623.888,0.02362
610.388,0.02583
599.781,0.01949