File: 01_Data/Turnout_Gear_Reflector/STA/N2/10K_min/Turnout_Gear_Reflector_STA_N2_10KData_240517_R2.csv
Temp./C,Time/min,DSC/(mW/mg),Mass loss/mg
60.0,0.0,1.11093,-0.0170421
62.5,0.284085,1.18795,-0.0156956
65,0.553638,1.25047,-0.0170589
67.5,0.822592,1.28794,-0.0179842
70,1.08569,1.33182,-0.0183399
72.5,1.34745,1.37599,-0.0181869
75,1.6092,1.41349,-0.0209809
77.5,1.86826,1.45868,-0.0203078
80,2.12517,1.50015,-0.0206855
82.5,2.37993,1.53255,-0.0237117
85,2.63206,1.56452,-0.02459
87.5,2.88483,1.58858,-0.024928
90,3.13368,1.60344,-0.0269079
92.5,3.38072,1.62512,-0.0286153
95,3.62835,1.63906,-0.0299055
97.5,3.87526,1.63446,-0.0315206
100,4.11984,1.64178,-0.031527
102.5,4.36278,1.63944,-0.0324746
105,4.60598,1.62629,-0.0341667
107.5,4.84951,1.62936,-0.03447
110,5.09055,1.61637,-0.0374152
112.5,5.33122,1.60491,-0.0375334
115,5.57484,1.59778,-0.0387647
117.5,5.81716,1.58846,-0.037466
120,6.05937,1.57714,-0.0395301
122.5,6.29958,1.57368,-0.039313
125,6.53978,1.56992,-0.03985
127.5,6.78138,1.56861,-0.03919
130,7.0201,1.56656,-0.0411694
132.5,7.26056,1.56574,-0.0398588
135,7.50058,1.55946,-0.0411824
137.5,7.73873,1.57563,-0.0411205
140,7.97879,1.57894,-0.0411689
142.5,8.21904,1.58009,-0.04084
145,8.45741,1.57412,-0.0392148
147.5,8.69637,1.6004,-0.04194
150,8.9355,1.59486,-0.04063
152.5,9.17437,1.60721,-0.0412784
155,9.41373,1.62048,-0.0419386
157.5,9.651,1.62628,-0.043125
160,9.88977,1.64268,-0.04194
162.5,10.1277,1.65166,-0.04194
165,10.3658,1.65696,-0.0425059
167.5,10.6036,1.66195,-0.0429345
170,10.8406,1.6716,-0.0430879
172.5,11.079,1.67628,-0.0445478
175,11.3159,1.68405,-0.04457
177.5,11.5528,1.69869,-0.0446106
180,11.7917,1.70434,-0.0454006
182.5,12.0283,1.71019,-0.0469104
185,12.2657,1.71558,-0.0454542
187.5,12.5027,1.71844,-0.0467701
190,12.7394,1.72438,-0.0467693
192.5,12.9769,1.732,-0.0494073
195,13.2141,1.73165,-0.05072
197.5,13.4504,1.74048,-0.0520954
200,13.6894,1.74537,-0.0527
202.5,13.9252,1.75409,-0.0546803
205,14.1643,1.76165,-0.0573094
207.5,14.4017,1.76179,-0.0569803
210,14.64,1.77361,-0.0599383
212.5,14.8786,1.77681,-0.06225
215,15.1158,1.78485,-0.0658628
217.5,15.3545,1.79851,-0.0668637
220,15.5916,1.80148,-0.0706408
222.5,15.8288,1.81417,-0.0731224
225,16.0662,1.81266,-0.0765109
227.5,16.3032,1.81593,-0.0803698
230,16.54,1.81743,-0.0863257
232.5,16.7782,1.81142,-0.0902577
235,17.0147,1.81722,-0.0973136
237.5,17.2504,1.82096,-0.105042
240,17.4885,1.81331,-0.11182
242.5,17.7263,1.81857,-0.119851
245,17.9628,1.81109,-0.12814
247.5,18.2,1.80037,-0.139798
250,18.439,1.80205,-0.150658
252.5,18.6767,1.81059,-0.163467
255,18.9166,2.00826,-0.179314
257.5,19.1545,1.97074,-0.194958
260,19.3907,1.83571,-0.212025
262.5,19.6246,1.73191,-0.231259
265,19.8639,1.65868,-0.251951
267.5,20.0999,1.55135,-0.276292
270,20.3357,1.41296,-0.3074
272.5,20.5709,1.21038,-0.342877
275,20.8052,0.922389,-0.386112
277.5,21.0392,0.557122,-0.440451
280,21.2725,0.139794,-0.501205
282.5,21.5055,-0.267389,-0.571034
285,21.7394,-0.616988,-0.656732
287.5,21.9748,-0.795733,-0.763091
290,22.2131,-0.610534,-0.883467
292.5,22.4603,0.0416601,-1.01001
295,22.7094,1.05271,-1.13475
297.5,22.9625,2.04427,-1.25711
300,23.2123,2.71061,-1.37374
302.5,23.4577,3.00972,-1.48411
305,23.6987,3.03161,-1.58355
307.5,23.9384,2.86668,-1.66938
310,24.1751,2.58895,-1.7391
312.5,24.4115,2.31861,-1.79629
315,24.6483,2.07427,-1.84121
317.5,24.8824,1.87477,-1.8782
320,25.1227,1.708,-1.9091
322.5,25.3615,1.57247,-1.93423
325,25.6007,1.47128,-1.95443
327.5,25.8402,1.37638,-1.97502
330,26.079,1.30671,-1.99213
332.5,26.3186,1.25263,-2.00796
335,26.5595,1.21004,-2.02518
337.5,26.799,1.17042,-2.03842
340,27.0385,1.13494,-2.05351
342.5,27.2815,1.11077,-2.0685
345,27.5222,1.08154,-2.07934
347.5,27.763,1.06068,-2.09242
350,28.0043,1.03417,-2.10499
352.5,28.2464,1.0156,-2.11893
355,28.4865,1.00841,-2.13261
357.5,28.7288,0.991407,-2.14318
360,28.9715,0.977472,-2.15654
362.5,29.2122,0.966787,-2.1698
365,29.4552,0.957548,-2.18297
367.5,29.697,0.95419,-2.19625
370,29.94,0.959073,-2.20954
372.5,30.1834,0.948198,-2.22537
375,30.4256,0.95224,-2.23938
377.5,30.6698,0.956367,-2.25504
380,30.9134,0.959088,-2.27323
382.5,31.1573,0.957,-2.29038
385,31.4019,0.968068,-2.3099
387.5,31.6461,0.979027,-2.33178
390,31.8901,0.983111,-2.35452
392.5,32.1351,0.982337,-2.3777
395,32.3788,0.991631,-2.40444
397.5,32.6233,1.00063,-2.43198
400,32.8665,0.997176,-2.46019
402.5,33.1112,0.99461,-2.49007
405,33.357,0.972931,-2.5214
407.5,33.6002,0.945744,-2.55318
410,33.842,0.90186,-2.58279
412.5,34.0884,0.863133,-2.6144
415,34.3324,0.825228,-2.64637
417.5,34.5768,0.772246,-2.67384
420,34.8211,0.727489,-2.7033
422.5,35.0647,0.681876,-2.72686
425,35.3077,0.634995,-2.75036
427.5,35.5542,0.609835,-2.77271
430,35.7994,0.599939,-2.79494
432.5,36.0449,0.59407,-2.81473
435,36.2911,0.596725,-2.83544
437.5,36.5359,0.600265,-2.85542
440,36.7821,0.622234,-2.87225
442.5,37.0266,0.644413,-2.89237
445,37.2723,0.656031,-2.90955
447.5,37.519,0.673152,-2.92835
450,37.7652,0.692271,-2.94645
452.5,38.0092,0.703904,-2.96393
455,38.2559,0.71064,-2.98108
457.5,38.5038,0.723511,-2.9985
460,38.7509,0.727067,-3.01629
462.5,38.9983,0.740769,-3.02988
465,39.2442,0.756608,-3.04718
467.5,39.4941,0.779015,-3.06238
470,39.7412,0.787429,-3.07433
472.5,39.9894,0.80067,-3.08986
475,40.2359,0.803212,-3.09838
477.5,40.4835,0.808013,-3.10887
480,40.7302,0.79431,-3.11935
482.5,40.9777,0.773972,-3.12912
485,41.2262,0.764827,-3.13637
487.5,41.4735,0.757839,-3.14351
490,41.7205,0.745329,-3.14992
492.5,41.9682,0.734317,-3.15446
495,42.216,0.737509,-3.15967
497.5,42.4637,0.738355,-3.16263
500,42.712,0.732034,-3.1676
502.5,42.9595,0.727217,-3.17022
505,43.2083,0.730545,-3.17417
507.5,43.4566,0.724509,-3.17809
510,43.7027,0.723983,-3.18071
512.5,43.9532,0.729126,-3.18471
515,44.2012,0.726255,-3.18607
517.5,44.4501,0.715574,-3.18877
520,44.6988,0.727777,-3.19129
522.5,44.9472,0.726559,-3.1922
525,45.1958,0.725498,-3.19656
527.5,45.4448,0.72678,-3.19788
530,45.6946,0.735304,-3.19919
532.5,45.9438,0.768209,-3.20314
535,46.1902,0.797382,-3.20444
537.5,46.443,0.808367,-3.20545
540,46.6929,0.818024,-3.20475
542.5,46.9428,0.844265,-3.20885
545,47.1918,0.846972,-3.21016
547.5,47.4419,0.849549,-3.21153
550,47.6917,0.850782,-3.2115
552.5,47.9417,0.842174,-3.21281
555,48.191,0.82894,-3.21545
557.5,48.4398,0.816002,-3.21807
560,48.6903,0.81999,-3.21676
562.5,48.94,0.818128,-3.2194
565,49.1896,0.814456,-3.2194
567.5,49.4402,0.810587,-3.22002
570,49.6905,0.811159,-3.22113
572.5,49.9416,0.813322,-3.22239
575,50.1923,0.822119,-3.22106
577.5,50.4432,0.841869,-3.22367
580,50.695,0.841503,-3.2264
582.5,50.9447,0.85606,-3.22664
585,51.196,0.864162,-3.22731
587.5,51.4468,0.873754,-3.22904
590,51.696,0.880679,-3.22993
592.5,51.9493,0.880804,-3.23135
595,52.2011,0.874053,-3.23137
597.5,52.4523,0.874165,-3.2317
600,52.7027,0.873836,-3.234
602.5,52.9534,0.860285,-3.23334
605,53.2047,0.848987,-3.23433
607.5,53.4566,0.840202,-3.23533
610,53.708,0.849012,-3.23663
612.5,53.9603,0.853604,-3.23663
615,54.2118,0.845759,-3.23691
617.5,54.4648,0.841518,-3.23941
620,54.718,0.845735,-3.23927
622.5,54.9709,0.845073,-3.24187
625,55.2246,0.83857,-3.2419
627.5,55.477,0.849944,-3.2419
630,55.7312,0.836673,-3.24257
632.5,55.9847,0.820306,-3.24322
635,56.238,0.817359,-3.24454
637.5,56.4908,0.814767,-3.24684
640,56.7427,0.803466,-3.24685
642.5,56.9952,0.808716,-3.24816
645,57.2488,0.799862,-3.24816
647.5,57.5019,0.791791,-3.24914
650,57.7537,0.797334,-3.2508
652.5,58.006,0.799637,-3.24981
655,58.26,0.775007,-3.25145
657.5,58.5135,0.77454,-3.25245
660,58.7669,0.754841,-3.25365
662.5,59.0206,0.752573,-3.25477
665,59.2733,0.744419,-3.25475
667.5,59.5272,0.745783,-3.25486
670,59.7789,0.737077,-3.25416
672.5,60.0314,0.737849,-3.25749
675,60.2845,0.728404,-3.25618
677.5,60.5373,0.712859,-3.25749
680,60.79,0.71937,-3.25881
682.5,61.0433,0.700195,-3.25871
685,61.297,0.69767,-3.26013
687.5,61.5509,0.690234,-3.2603
690,61.8047,0.672758,-3.26111
692.5,62.0577,0.669886,-3.26045
695,62.3121,0.662406,-3.2621
697.5,62.5661,0.649086,-3.26349
700,62.819,0.644486,-3.26415
702.5,63.0725,0.640215,-3.26399
705,63.3264,0.621743,-3.26507
707.5,63.5793,0.613689,-3.2665
710,63.8322,0.597187,-3.26544
712.5,64.0857,0.590083,-3.26616
715,64.3409,0.584664,-3.26946
717.5,64.5944,0.580854,-3.26748
720,64.8461,0.582753,-3.27078
722.5,65.1011,0.575318,-3.26997
725,65.3548,0.5664,-3.27044
727.5,65.6082,0.564046,-3.27308
730,65.8606,0.559027,-3.27317
732.5,66.115,0.560235,-3.2744
735,66.37,0.557339,-3.2744
737.5,66.6236,0.554161,-3.27572
740,66.8789,0.550662,-3.27567
742.5,67.1328,0.549135,-3.27677
745,67.387,0.538285,-3.27901
747.5,67.641,0.538849,-3.27768
750,67.8953,0.533416,-3.27906
752.5,68.1486,0.525497,-3.28164
755,68.4014,0.527082,-3.28164
757.5,68.658,0.534797,-3.28165
760,68.9127,0.541962,-3.28493
762.5,69.1682,0.536814,-3.28493
765,69.4226,0.526131,-3.28494
767.5,69.678,0.53141,-3.28552
770,69.932,0.530871,-3.28661
772.5,70.1868,0.5278,-3.28813
775,70.4401,0.528572,-3.28815
777.5,70.6948,0.533398,-3.28987
780,70.9502,0.52472,-3.28987
782.5,71.2054,0.522289,-3.29152
785,71.4619,0.531243,-3.29153
787.5,71.7175,0.517009,-3.29492
790,71.972,0.518607,-3.29388