File: 01_Data/Helmet_Strap/STA/N2/30K_min/Helmet_Strap_STA_N2_30KData_250228_R1.csv
Temp./C,Time/min,DSC/(mW/mg),Mass loss/mg
60.0,0.0,1.1861,-0.0133959
62.7,0.162157,1.39149,-0.0148776
65.4,0.308142,1.56977,-0.0158066
68.1,0.443301,1.70619,-0.01605
70.8,0.57184,1.85742,-0.0152296
73.5,0.694504,1.97754,-0.0167468
76.2,0.813184,2.09795,-0.0145956
78.9,0.927763,2.1834,-0.0160466
81.6,1.04049,2.28192,-0.0177415
84.3,1.1496,2.36474,-0.0177845
87,1.25726,2.44478,-0.0187477
89.7,1.3624,2.5184,-0.0196236
92.4,1.46635,2.58666,-0.019729
95.1,1.5683,2.65036,-0.0188139
97.8,1.66885,2.71906,-0.0196034
100.5,1.76857,2.76258,-0.0193689
103.2,1.8667,2.80996,-0.020364
105.9,1.9648,2.85356,-0.0205924
108.6,2.06139,2.88062,-0.021378
111.3,2.15719,2.90306,-0.0206416
114,2.25286,2.91503,-0.0212423
116.7,2.34784,2.91709,-0.0206981
119.4,2.44228,2.92518,-0.0226049
122.1,2.53542,2.93071,-0.0232716
124.8,2.62848,2.92423,-0.0235197
127.5,2.72043,2.91837,-0.0247691
130.2,2.8111,2.91782,-0.0247098
132.9,2.90294,2.92486,-0.0260152
135.6,2.99334,2.93508,-0.0270058
138.3,3.08223,2.96231,-0.0261441
141,3.1717,2.98378,-0.0260184
143.7,3.26003,3.00009,-0.0260202
146.4,3.34809,3.03,-0.0250403
149.1,3.43578,3.06369,-0.0263492
151.8,3.5227,3.08651,-0.0263613
154.5,3.60986,3.11968,-0.0260207
157.2,3.69593,3.15423,-0.0260196
159.9,3.78226,3.194,-0.0272593
162.6,3.86722,3.22743,-0.0286568
165.3,3.95368,3.2636,-0.0289803
168,4.03953,3.29043,-0.0290521
170.7,4.12408,3.32191,-0.031619
173.4,4.20924,3.35659,-0.03162
176.1,4.29385,3.38382,-0.0316205
178.8,4.37757,3.41214,-0.0329404
181.5,4.46153,3.4481,-0.0329696
184.2,4.54515,3.47425,-0.03426
186.9,4.62808,3.50517,-0.03426
189.6,4.71115,3.53265,-0.0341863
192.3,4.79411,3.55969,-0.0362126
195,4.87638,3.58457,-0.0375499
197.7,4.95829,3.61626,-0.0375498
200.4,5.04057,3.64756,-0.0362302
203.1,5.1223,3.67103,-0.0375495
205.8,5.204,3.69724,-0.037218
208.5,5.28576,3.72306,-0.0372201
211.2,5.36737,3.74627,-0.0385394
213.9,5.44896,3.78142,-0.0411464
216.6,5.53038,3.82595,-0.0427092
219.3,5.61118,3.85299,-0.0452558
222,5.69248,3.91127,-0.0485252
224.7,5.77353,3.95852,-0.0498354
227.4,5.855,4.00239,-0.0526952
230.1,5.936,4.06523,-0.0527222
232.8,6.01663,4.11422,-0.0541764
235.5,6.09777,4.15642,-0.0539725
238.2,6.17815,4.1786,-0.0555702
240.9,6.25855,4.18196,-0.0566703
243.6,6.33791,4.16695,-0.0595411
246.3,6.41925,4.13592,-0.0656236
249,6.49911,4.11623,-0.0681089
251.7,6.57945,4.08581,-0.0681749
254.4,6.65971,4.07266,-0.0725968
257.1,6.73998,4.06375,-0.0779854
259.8,6.81974,4.06702,-0.0814778
262.5,6.89995,4.06718,-0.087973
265.2,6.98007,4.07226,-0.0925382
267.9,7.06053,4.07001,-0.100757
270.6,7.13955,4.07991,-0.107397
273.3,7.21999,4.07162,-0.114135
276,7.29995,4.06102,-0.122113
278.7,7.37954,4.06452,-0.130258
281.4,7.45991,4.0392,-0.138447
284.1,7.53995,4.02709,-0.144847
286.8,7.61993,4.01105,-0.151973
289.5,7.69961,3.97467,-0.15787
292.2,7.77964,3.92141,-0.165852
294.9,7.85968,3.88894,-0.173088
297.6,7.93954,3.92519,-0.181022
300.3,8.02004,4.00601,-0.189765
303,8.10032,4.08746,-0.196023
305.7,8.18079,4.14347,-0.204338
308.4,8.26147,4.19063,-0.211391
311.1,8.34175,4.21272,-0.216826
313.8,8.42194,4.21943,-0.21978
316.5,8.5025,4.20788,-0.224373
319.2,8.58283,4.20044,-0.228275
321.9,8.66271,4.16596,-0.230633
324.6,8.7429,4.12655,-0.234755
327.3,8.82356,4.09425,-0.240224
330,8.90408,4.05351,-0.242732
332.7,8.98424,4.02141,-0.245737
335.4,9.06492,3.97832,-0.248568
338.1,9.14545,3.94983,-0.250187
340.8,9.2258,3.9199,-0.252823
343.5,9.30661,3.89766,-0.255512
346.2,9.38733,3.88179,-0.258304
348.9,9.46827,3.87923,-0.262354
351.6,9.5494,3.87358,-0.263694
354.3,9.63059,3.86995,-0.264478
357,9.71145,3.87982,-0.267069
359.7,9.79238,3.88055,-0.269395
362.4,9.87368,3.89238,-0.272018
365.1,9.95503,3.91212,-0.275531
367.8,10.0367,3.92932,-0.277128
370.5,10.1184,3.9563,-0.279889
373.2,10.1997,3.97507,-0.278741
375.9,10.2815,4.00546,-0.278739
378.6,10.3632,4.05015,-0.28006
381.3,10.4454,4.09467,-0.281326
384,10.5275,4.15005,-0.285328
386.7,10.6093,4.21082,-0.286053
389.4,10.6917,4.28378,-0.287951
392.1,10.7742,4.35615,-0.289249
394.8,10.8565,4.42608,-0.291001
397.5,10.939,4.53063,-0.292751
400.2,11.0218,4.63973,-0.29323
402.9,11.1047,4.79297,-0.295435
405.6,11.1882,4.97479,-0.299754
408.3,11.2712,5.17723,-0.299707
411,11.3547,5.46566,-0.302408
413.7,11.4387,5.79818,-0.303772
416.4,11.5225,6.17049,-0.308055
419.1,11.6071,6.6246,-0.312693
421.8,11.6916,7.11401,-0.314504
424.5,11.7766,7.59125,-0.318559
427.2,11.861,8.01515,-0.323382
429.9,11.9452,8.31272,-0.327712
432.6,12.0288,8.44454,-0.332391
435.3,12.1118,8.3943,-0.339546
438,12.194,8.07873,-0.348717
440.7,12.2751,7.56191,-0.358401
443.4,12.357,6.92587,-0.371158
446.1,12.4381,6.34355,-0.384678
448.8,12.5198,5.95311,-0.396836
451.5,12.603,5.73227,-0.415082
454.2,12.6859,5.64632,-0.433172
456.9,12.769,5.63427,-0.456268
459.6,12.8533,5.66876,-0.481437
462.3,12.9372,5.72612,-0.507693
465,13.021,5.78464,-0.53712
467.7,13.1055,5.8339,-0.56863
470.4,13.1891,5.88314,-0.601709
473.1,13.2734,5.92092,-0.638902
475.8,13.3578,5.94338,-0.674538
478.5,13.4418,5.93634,-0.714392
481.2,13.5259,5.90272,-0.752917
483.9,13.6101,5.8385,-0.79533
486.6,13.6942,5.7535,-0.838296
489.3,13.7783,5.64157,-0.876445
492,13.8623,5.5159,-0.914839
494.7,13.9465,5.36109,-0.955525
497.4,14.0306,5.19793,-0.998328
500.1,14.1147,5.03139,-1.03878
502.8,14.1984,4.86984,-1.07836
505.5,14.2832,4.70657,-1.116
508.2,14.3677,4.55857,-1.15453
510.9,14.4522,4.40418,-1.19057
513.6,14.5365,4.26786,-1.22466
516.3,14.6217,4.13258,-1.25782
519,14.7065,4.00507,-1.29167
521.7,14.7913,3.89353,-1.32256
524.4,14.8763,3.78142,-1.35156
527.1,14.9611,3.67366,-1.37943
529.8,15.0466,3.57702,-1.40706
532.5,15.1317,3.48531,-1.43072
535.2,15.2172,3.39909,-1.45179
537.9,15.3025,3.3226,-1.47723
540.6,15.388,3.2465,-1.49813
543.3,15.4733,3.1759,-1.51809
546,15.5593,3.11354,-1.5373
548.7,15.645,3.05057,-1.5586
551.4,15.7304,2.98169,-1.57662
554.1,15.8162,2.91653,-1.59455
556.8,15.9022,2.86481,-1.61065
559.5,15.9882,2.80966,-1.62511
562.2,16.0742,2.74961,-1.63814
564.9,16.1602,2.69435,-1.65455
567.6,16.2461,2.62834,-1.67271
570.3,16.3325,2.55978,-1.68782
573,16.4184,2.48974,-1.70144
575.7,16.5049,2.41008,-1.7173
578.4,16.5908,2.33392,-1.73228
581.1,16.6772,2.26339,-1.74687
583.8,16.7636,2.19966,-1.75902
586.5,16.8504,2.12087,-1.77301
589.2,16.9367,2.05399,-1.78774
591.9,17.0232,1.98789,-1.80151
594.6,17.1094,1.91796,-1.81329
597.3,17.1967,1.84324,-1.8275
600,17.2834,1.79111,-1.83969
602.7,17.3698,1.71889,-1.85254
605.4,17.4568,1.66328,-1.86267
608.1,17.5438,1.63291,-1.87543
610.8,17.6307,1.60072,-1.88378
613.5,17.7179,1.56703,-1.89575
616.2,17.8043,1.55181,-1.90418
618.9,17.891,1.54842,-1.91485
621.6,17.9791,1.55133,-1.92426
624.3,18.0665,1.58508,-1.93379
627,18.1533,1.59639,-1.94277
629.7,18.241,1.63657,-1.95064
632.4,18.3289,1.66674,-1.9588
635.1,18.4163,1.69902,-1.96642
637.8,18.5036,1.72971,-1.97269
640.5,18.5915,1.77034,-1.97903
643.2,18.6791,1.793,-1.985
645.9,18.7667,1.81859,-1.9897
648.6,18.854,1.86617,-1.9964
651.3,18.9422,1.89816,-2.00434
654,19.0297,1.92475,-2.00855
656.7,19.1177,1.94405,-2.01673
659.4,19.2057,1.96787,-2.02043
662.1,19.2938,1.99184,-2.02501
664.8,19.3814,2.02135,-2.03073
667.5,19.4693,2.0357,-2.03681
670.2,19.5574,2.08038,-2.04033
672.9,19.6452,2.10704,-2.04229
675.6,19.7331,2.12347,-2.04666
678.3,19.8211,2.15851,-2.05261
681,19.9089,2.17558,-2.0537
683.7,19.9969,2.20634,-2.06185
686.4,20.0853,2.21955,-2.06725
689.1,20.1732,2.25405,-2.07216
691.8,20.2614,2.2835,-2.07588
694.5,20.3491,2.30037,-2.0785
697.2,20.4374,2.34201,-2.08093
699.9,20.5256,2.36721,-2.08558
702.6,20.6136,2.39539,-2.08857
705.3,20.7011,2.41671,-2.08846
708,20.7901,2.45327,-2.0918
710.7,20.8781,2.44526,-2.0957
713.4,20.9665,2.46462,-2.09932
716.1,21.0546,2.46521,-2.10417
718.8,21.1429,2.47744,-2.10706
721.5,21.2315,2.474,-2.11241
724.2,21.3195,2.46971,-2.11703
726.9,21.4079,2.44925,-2.11839
729.6,21.4963,2.45459,-2.12332
732.3,21.5848,2.4398,-2.12709
735,21.6736,2.42738,-2.13026
737.7,21.7618,2.4167,-2.13306
740.4,21.8505,2.41939,-2.13506
743.1,21.9393,2.3972,-2.13632
745.8,22.0278,2.37851,-2.14001
748.5,22.1165,2.35622,-2.14331
751.2,22.2053,2.33628,-2.14769
753.9,22.2937,2.28838,-2.15337
756.6,22.3824,2.2541,-2.15628
759.3,22.4712,2.21049,-2.16163
762,22.5604,2.15579,-2.16713
764.7,22.6488,2.11041,-2.1686
767.4,22.7377,2.06415,-2.17166
770.1,22.8266,2.00355,-2.17737
772.8,22.915,1.9372,-2.18368
775.5,23.004,1.87432,-2.18467
778.2,23.0927,1.81451,-2.18739
780.9,23.1816,1.75964,-2.18982
783.6,23.2706,1.69634,-2.19398
786.3,23.3595,1.62503,-2.19937
789,23.4484,1.56118,-2.20344
791.7,23.5375,1.51099,-2.20562
794.4,23.6265,1.24284,-2.20741
797.1,23.7155,1.15657,-2.21289
799.8,23.805,1.10379,-2.21295
802.5,23.8941,1.02918,-2.21285
805.2,23.9835,1.12357,-2.2143
807.9,24.0729,1.16476,-2.21706
810.6,24.1621,1.14592,-2.22003
813.3,24.2513,1.10426,-2.22538
816,24.3407,1.05205,-2.23078
818.7,24.4301,1.0277,-2.23296
821.4,24.5195,0.98238,-2.23401
824.1,24.609,0.92794,-2.23558
826.8,24.6985,0.910258,-2.23655
829.5,24.7884,0.89033,-2.23825
832.2,24.8781,0.875964,-2.23828
834.9,24.9678,0.860036,-2.24042
837.6,25.0576,0.84944,-2.24327
840,25.1374,0.84096,-2.24436