File: 01_Data/Helmet_Strap/STA/N2/30K_min/Helmet_Strap_STA_N2_30KData_250603_R4.csv
Temp./C,Time/min,DSC/(mW/mg),Mass loss/mg
40.0,0.0,1.09842,-0.0412578
42.7,0.162174,1.31131,-0.0433282
45.4,0.306991,1.51298,-0.0450582
48.1,0.447012,1.69671,-0.0465567
50.8,0.57754,1.89956,-0.0483434
53.5,0.702689,2.08165,-0.0503712
56.2,0.822243,2.28329,-0.0526841
58.9,0.939762,2.4921,-0.0555234
61.6,1.05277,2.71394,-0.0566473
64.3,1.16441,2.94285,-0.060983
67,1.27401,3.16622,-0.0644258
69.7,1.38237,3.40016,-0.0681526
72.4,1.48887,3.61541,-0.0715799
75.1,1.59471,3.83937,-0.0762378
77.8,1.69837,4.01584,-0.0804019
80.5,1.80085,4.18737,-0.0850686
83.2,1.90198,4.32205,-0.0889669
85.9,2.00169,4.41053,-0.0931121
88.6,2.10015,4.48112,-0.098263
91.3,2.19757,4.49445,-0.102326
94,2.29334,4.47019,-0.108042
96.7,2.38772,4.42239,-0.112189
99.4,2.4807,4.33101,-0.116945
102.1,2.57455,4.22118,-0.120864
104.8,2.66691,4.08661,-0.123502
107.5,2.75866,3.93604,-0.126137
110.2,2.84998,3.76977,-0.129801
112.9,2.94042,3.60365,-0.132734
115.6,3.03104,3.42135,-0.13276
118.3,3.12067,3.24915,-0.13677
121,3.20988,3.08347,-0.136835
123.7,3.2989,2.94518,-0.138
126.4,3.38746,2.81349,-0.139198
129.1,3.47504,2.71546,-0.139363
131.8,3.56272,2.629,-0.139969
134.5,3.64949,2.55348,-0.141112
137.2,3.73569,2.52519,-0.14195
139.9,3.82283,2.48481,-0.14064
142.6,3.90892,2.47255,-0.141163
145.3,3.99413,2.47664,-0.140642
148,4.07923,2.49499,-0.140641
150.7,4.1642,2.50615,-0.141949
153.4,4.24866,2.52587,-0.14195
156.1,4.33298,2.54538,-0.142944
158.8,4.41735,2.56499,-0.142578
161.5,4.50136,2.57689,-0.14261
164.2,4.58524,2.61364,-0.14261
166.9,4.66837,2.63988,-0.142522
169.6,4.75206,2.66197,-0.143941
172.3,4.83479,2.70842,-0.14524
175,4.9175,2.73693,-0.14524
177.7,5.00028,2.76385,-0.145557
180.4,5.0824,2.79202,-0.14689
183.1,5.16475,2.81043,-0.14689
185.8,5.24664,2.83359,-0.148185
188.5,5.32763,2.86034,-0.148094
191.2,5.4097,2.87012,-0.149529
193.9,5.49053,2.89088,-0.150839
196.6,5.57183,2.91741,-0.152188
199.3,5.65272,2.93474,-0.152831
202,5.7336,2.95324,-0.153482
204.7,5.81403,2.96169,-0.155392
207.4,5.89504,2.9902,-0.156127
210.1,5.97544,3.004,-0.158036
212.8,6.05567,3.02912,-0.159391
215.5,6.13617,3.04305,-0.160718
218.2,6.21649,3.05329,-0.162018
220.9,6.29682,3.0884,-0.164025
223.6,6.37686,3.11598,-0.164677
226.3,6.45756,3.15937,-0.165999
229,6.53765,3.22755,-0.168713
231.7,6.61776,3.27886,-0.170465
234.4,6.6979,3.34768,-0.173111
237.1,6.77821,3.38969,-0.173746
239.8,6.85786,3.43252,-0.17581
242.5,6.93708,3.44071,-0.177416
245.2,7.01791,3.43031,-0.179966
247.9,7.09711,3.42449,-0.181691
250.6,7.17679,3.41006,-0.185701
253.3,7.25661,3.4001,-0.188573
256,7.33632,3.37394,-0.19129
258.7,7.4155,3.3649,-0.195323
261.4,7.49557,3.34589,-0.199664
264.1,7.57508,3.33052,-0.203241
266.8,7.65463,3.31134,-0.208818
269.5,7.7343,3.29578,-0.213966
272.2,7.81413,3.25925,-0.219754
274.9,7.89368,3.23315,-0.226973
277.6,7.97286,3.19126,-0.233241
280.3,8.05255,3.13749,-0.238824
283,8.13198,3.09653,-0.245063
285.7,8.21182,3.05769,-0.252356
288.4,8.29146,3.00301,-0.259471
291.1,8.37114,2.97293,-0.265483
293.8,8.45067,2.9047,-0.272725
296.5,8.53071,2.86072,-0.279421
299.2,8.61095,2.87411,-0.286991
301.9,8.69104,2.94171,-0.292234
304.6,8.77125,3.02473,-0.297334
307.3,8.85163,3.07332,-0.303669
310,8.93188,3.11466,-0.309358
312.7,9.01172,3.13876,-0.314619
315.4,9.09195,3.14016,-0.31763
318.1,9.17244,3.12734,-0.32137
320.8,9.25286,3.10542,-0.324223
323.5,9.33295,3.08011,-0.328501
326.2,9.41327,3.04397,-0.329931
328.9,9.49367,3.01011,-0.33264
331.6,9.57408,2.97719,-0.336028
334.3,9.65454,2.93825,-0.338133
337,9.73503,2.9168,-0.340159
339.7,9.81559,2.89545,-0.342087
342.4,9.89639,2.87573,-0.344778
345.1,9.97729,2.86073,-0.345155
347.8,10.0575,2.8519,-0.347109
350.5,10.1391,2.84983,-0.349113
353.2,10.2202,2.83962,-0.350462
355.9,10.3013,2.85542,-0.353034
358.6,10.3826,2.85167,-0.354381
361.3,10.4641,2.85775,-0.3557
364,10.5453,2.86521,-0.357003
366.7,10.6267,2.87781,-0.358342
369.4,10.708,2.90976,-0.36064
372.1,10.7899,2.93607,-0.362069
374.8,10.8722,2.97509,-0.36195
377.5,10.9542,3.01097,-0.363269
380.2,11.0362,3.04958,-0.364556
382.9,11.1182,3.10696,-0.365928
385.6,11.2004,3.1595,-0.367219
388.3,11.2827,3.21796,-0.368539
391,11.3651,3.29241,-0.368545
393.7,11.4476,3.37582,-0.369766
396.4,11.5303,3.465,-0.372169
399.1,11.6133,3.56917,-0.372491
401.8,11.6961,3.69738,-0.373935
404.5,11.7795,3.85111,-0.375064
407.2,11.863,4.0691,-0.376394
409.9,11.9466,4.32411,-0.377776
412.6,12.0303,4.63722,-0.380206
415.3,12.1148,5.01925,-0.381714
418,12.1993,5.46794,-0.38471
420.7,12.2844,5.97012,-0.387867
423.4,12.3695,6.48909,-0.391288
426.1,12.454,6.90996,-0.394457
428.8,12.5387,7.18125,-0.398697
431.5,12.6222,7.22695,-0.404023
434.2,12.7053,7.07357,-0.411633
436.9,12.7879,6.73085,-0.417515
439.6,12.8698,6.25095,-0.425633
442.3,12.9518,5.69534,-0.434531
445,13.0339,5.2096,-0.44576
447.7,13.1156,4.88615,-0.45844
450.4,13.1995,4.69497,-0.473327
453.1,13.2829,4.62386,-0.489464
455.8,13.367,4.62738,-0.509688
458.5,13.4508,4.67335,-0.529475
461.2,13.5356,4.72865,-0.552303
463.9,13.6202,4.79164,-0.578522
466.6,13.7046,4.84018,-0.605203
469.3,13.7891,4.88654,-0.634462
472,13.874,4.91338,-0.667383
474.7,13.9588,4.94034,-0.701084
477.4,14.0434,4.94598,-0.73475
480.1,14.1281,4.93659,-0.770075
482.8,14.2126,4.90954,-0.80576
485.5,14.2977,4.84755,-0.841069
488.2,14.3824,4.78011,-0.87768
490.9,14.4673,4.69244,-0.912492
493.6,14.552,4.57758,-0.949854
496.3,14.6369,4.46113,-0.984471
499,14.7217,4.34158,-1.01822
501.7,14.8066,4.18279,-1.05082
504.4,14.8918,4.03487,-1.08031
507.1,14.9765,3.89815,-1.11046
509.8,15.0612,3.74887,-1.13893
512.5,15.1472,3.62297,-1.16515
515.2,15.2323,3.50056,-1.19076
517.9,15.318,3.39137,-1.21576
520.6,15.4035,3.28117,-1.23952
523.3,15.4887,3.1919,-1.26155
526,15.5745,3.10312,-1.28227
528.7,15.6603,3.03282,-1.30293
531.4,15.7463,2.96901,-1.32949
534.1,15.8324,2.91045,-1.34264
536.8,15.9184,2.86093,-1.36194
539.5,16.0048,2.80655,-1.38139
542.2,16.0909,2.75187,-1.40072
544.9,16.1764,2.71451,-1.41911
547.6,16.2639,2.6529,-1.43862
550.3,16.3495,2.61497,-1.458
553,16.4365,2.56966,-1.47415
555.7,16.523,2.52871,-1.49251
558.4,16.6093,2.47946,-1.51066
561.1,16.6961,2.42542,-1.52779
563.8,16.7832,2.38256,-1.54589
566.5,16.8692,2.33371,-1.56538
569.2,16.9565,2.27419,-1.58354
571.9,17.0431,2.21812,-1.60055
574.6,17.1301,2.16015,-1.61639
577.3,17.2169,2.09523,-1.63463
580,17.3035,2.041,-1.65142
582.7,17.3909,1.96698,-1.66919
585.4,17.4775,1.90275,-1.68479
588.1,17.5645,1.83612,-1.70033
590.8,17.6515,1.75709,-1.71683
593.5,17.7389,1.68209,-1.73197
596.2,17.8259,1.60618,-1.74703
598.9,17.913,1.5505,-1.76065
601.6,18.0005,1.49153,-1.77462
604.3,18.0881,1.44157,-1.78788
607,18.1752,1.38674,-1.80588
609.7,18.263,1.34389,-1.80837
612.4,18.3509,1.31815,-1.81982
615.1,18.4383,1.29863,-1.83204
617.8,18.5262,1.29022,-1.84313
620.5,18.614,1.27663,-1.85528
623.2,18.7021,1.28936,-1.86491
625.9,18.7899,1.29802,-1.87455
628.6,18.8781,1.31836,-1.88497
631.3,18.9661,1.3479,-1.89293
634,19.0544,1.36812,-1.89931
636.7,19.1424,1.40996,-1.90939
639.4,19.2308,1.44983,-1.91652
642.1,19.3187,1.48657,-1.92433
644.8,19.4066,1.54079,-1.93136
647.5,19.4956,1.58507,-1.93789
650.2,19.5837,1.62972,-1.94519
652.9,19.6717,1.67238,-1.95195
655.6,19.7609,1.72697,-1.95788
658.3,19.8483,1.76894,-1.96352
661,19.9376,1.81551,-1.96826
663.7,20.0255,1.85347,-1.97343
666.4,20.1147,1.89638,-1.98016
669.1,20.2033,1.93299,-1.9839
671.8,20.2919,1.98134,-1.98807
674.5,20.3801,2.02324,-1.99161
677.2,20.4692,2.05173,-1.9986
679.9,20.5572,2.0914,-2.00322
682.6,20.6459,2.11833,-2.00614
685.3,20.7347,2.15379,-2.01069
688,20.8233,2.1907,-2.01456
690.7,20.9117,2.20763,-2.01791
693.4,21,2.22777,-2.02272
696.1,21.0888,2.2562,-2.02662
698.8,21.1776,2.27616,-2.03154
701.5,21.2661,2.29198,-2.03631
704.2,21.3549,2.30568,-2.0385
706.9,21.4434,2.31734,-2.04391
709.6,21.5325,2.33589,-2.04504
712.3,21.6213,2.33834,-2.04893
715,21.7102,2.35124,-2.05505
717.7,21.7991,2.37329,-2.0579
720.4,21.888,2.36582,-2.06136
723.1,21.9766,2.355,-2.06619
725.8,22.0659,2.34729,-2.06774
728.5,22.1548,2.34495,-2.07237
731.2,22.2435,2.32318,-2.0771
733.9,22.3328,2.29964,-2.07955
736.6,22.4211,2.27088,-2.08482
739.3,22.5105,2.25154,-2.08807
742,22.5995,2.22582,-2.09303
744.7,22.6887,2.19723,-2.09607
747.4,22.7778,2.1603,-2.09917
750.1,22.8664,2.11942,-2.10325
752.8,22.9553,2.09296,-2.1086
755.5,23.0446,2.04193,-2.11298
758.2,23.1335,2.00154,-2.1168
760.9,23.2226,1.97235,-2.1211
763.6,23.3115,1.92303,-2.12526
766.3,23.4007,1.87901,-2.12726
769,23.4898,1.84373,-2.13312
771.7,23.579,1.81584,-2.13625
774.4,23.6683,1.78689,-2.13991
777.1,23.7572,1.75766,-2.14266
779.8,23.8463,1.72825,-2.14639
782.5,23.9355,1.70028,-2.15024
785.2,24.025,1.67008,-2.15473
787.9,24.1143,1.64414,-2.15931
790.6,24.2034,1.61245,-2.16066
793.3,24.293,1.58448,-2.16595
796,24.3823,1.5441,-2.16275
798.7,24.4716,1.49963,-2.16829
801.4,24.5613,1.45832,-2.17161
804.1,24.6507,1.43095,-2.17447
806.8,24.7402,1.38287,-2.17826
809.5,24.8301,1.32485,-2.18549
812.2,24.9194,1.28104,-2.18161
814.9,25.009,1.22526,-2.18221
817.6,25.0988,1.17399,-2.18516
820.3,25.1887,1.09494,-2.19032
823,25.2783,1.02494,-2.19163
825.7,25.368,0.969185,-2.19246
828.4,25.4577,0.93567,-2.19368
831.1,25.5481,0.897887,-2.19463
833.8,25.6379,0.854016,-2.19704
836.5,25.7278,0.809205,-2.19894
839.2,25.818,0.761815,-2.20208
840,25.8447,0.742189,-2.20215