File: 01_Data/Helmet_Strap/STA/N2/30K_min/Helmet_Strap_STA_N2_30KData_250401_R3.csv
Temp./C,Time/min,DSC/(mW/mg),Mass loss/mg
60.0,0.0,1.15767,-0.00840799
62.7,0.158641,1.35239,-0.00505164
65.4,0.303119,1.51122,-0.00762764
68.1,0.437044,1.66076,-0.00558335
70.8,0.56405,1.79042,-0.00798172
73.5,0.686066,1.91325,-0.0072802
76.2,0.803,2.01972,-0.00869104
78.9,0.917468,2.11783,-0.0108719
81.6,1.02756,2.19858,-0.00966336
84.3,1.1373,2.28579,-0.00981808
87,1.24306,2.37125,-0.0103817
89.7,1.34934,2.45305,-0.00983806
92.4,1.45151,2.53103,-0.0106355
95.1,1.55364,2.6043,-0.0131871
97.8,1.65391,2.66268,-0.0182119
100.5,1.75277,2.7154,-0.0169322
103.2,1.85055,2.76803,-0.0168255
105.9,1.94793,2.80068,-0.0137347
108.6,2.04436,2.81597,-0.0140111
111.3,2.1401,2.82481,-0.0146108
114,2.23537,2.82581,-0.0170357
116.7,2.32978,2.81293,-0.0164056
119.4,2.42341,2.79866,-0.0176551
122.1,2.5164,2.78375,-0.0190949
124.8,2.60832,2.77412,-0.0164948
127.5,2.70036,2.76095,-0.0181179
130.2,2.79183,2.75236,-0.020482
132.9,2.88208,2.75938,-0.0204299
135.6,2.97222,2.77555,-0.0191187
138.3,3.06129,2.77994,-0.0191063
141,3.14984,2.80573,-0.0190996
143.7,3.23843,2.83469,-0.0217461
146.4,3.32574,2.85671,-0.0230603
149.1,3.41325,2.89031,-0.0230487
151.8,3.50006,2.91565,-0.0231002
154.5,3.58675,2.94473,-0.0191272
157.2,3.67299,2.9688,-0.02042
159.9,3.75855,3.00548,-0.0218196
162.6,3.84412,3.03891,-0.0188658
165.3,3.92969,3.07192,-0.0244571
168,4.01384,3.10404,-0.0258055
170.7,4.09925,3.12975,-0.0257701
173.4,4.18413,3.15325,-0.0261413
176.1,4.26813,3.17527,-0.0250185
178.8,4.35189,3.20484,-0.02613
181.5,4.43577,3.22203,-0.02613
184.2,4.51896,3.24907,-0.0274442
186.9,4.60161,3.27697,-0.0296429
189.6,4.68445,3.30171,-0.0297609
192.3,4.76674,3.32473,-0.0310703
195,4.84917,3.3486,-0.0323901
197.7,4.93153,3.36586,-0.0337032
200.4,5.01286,3.38741,-0.0350299
203.1,5.09472,3.40301,-0.03503
205.8,5.17634,3.42038,-0.0366709
208.5,5.25782,3.44862,-0.0379854
211.2,5.33948,3.47882,-0.0402791
213.9,5.42045,3.49902,-0.041871
216.6,5.5018,3.52182,-0.0420391
219.3,5.58306,3.54664,-0.0446592
222,5.66414,3.59102,-0.0455444
224.7,5.74516,3.63204,-0.0473261
227.4,5.82614,3.68437,-0.0493524
230.1,5.90721,3.75267,-0.0527654
232.8,5.98808,3.82073,-0.0543444
235.5,6.0689,3.88303,-0.0578268
238.2,6.14957,3.91999,-0.0599494
240.9,6.23002,3.93467,-0.0606249
243.6,6.31019,3.91749,-0.0635582
246.3,6.39064,3.90543,-0.0658696
249,6.47075,3.89149,-0.0673719
251.7,6.55116,3.86324,-0.0725893
254.4,6.63036,3.83975,-0.0779763
257.1,6.71123,3.83609,-0.0835581
259.8,6.79049,3.81867,-0.0866745
262.5,6.87122,3.80284,-0.0902892
265.2,6.95143,3.78617,-0.094762
267.9,7.03101,3.76966,-0.0996936
270.6,7.11091,3.76334,-0.103764
273.3,7.19063,3.7241,-0.108949
276,7.27046,3.6904,-0.117171
278.7,7.35045,3.65884,-0.121573
281.4,7.4295,3.60631,-0.127094
284.1,7.50998,3.56158,-0.133322
286.8,7.58991,3.51193,-0.141919
289.5,7.67012,3.46102,-0.152307
292.2,7.74988,3.40211,-0.161714
294.9,7.82996,3.3256,-0.165816
297.6,7.91014,3.33966,-0.172773
300.3,7.99052,3.42053,-0.179657
303,8.07077,3.51492,-0.187762
305.7,8.15146,3.59231,-0.194605
308.4,8.2322,3.6388,-0.199773
311.1,8.31197,3.66461,-0.206206
313.8,8.39341,3.66815,-0.210882
316.5,8.47346,3.65976,-0.216276
319.2,8.55359,3.63994,-0.220487
321.9,8.6342,3.62267,-0.223193
324.6,8.71495,3.58711,-0.224727
327.3,8.79522,3.55557,-0.224691
330,8.87596,3.50582,-0.223788
332.7,8.95635,3.47767,-0.22834
335.4,9.03679,3.4479,-0.236584
338.1,9.11751,3.431,-0.23956
340.8,9.19841,3.41545,-0.24075
343.5,9.27946,3.40305,-0.241159
346.2,9.36028,3.39721,-0.243688
348.9,9.44141,3.39065,-0.245075
351.6,9.52224,3.39392,-0.247076
354.3,9.6033,3.39713,-0.248554
357,9.68456,3.3894,-0.250785
359.7,9.76608,3.39549,-0.253159
362.4,9.84735,3.40141,-0.2561
365.1,9.92892,3.43738,-0.259769
367.8,10.0104,3.4351,-0.2592
370.5,10.0919,3.44555,-0.260467
373.2,10.1737,3.48259,-0.260605
375.9,10.2557,3.51655,-0.262838
378.6,10.3376,3.56095,-0.263129
381.3,10.4192,3.60226,-0.267202
384,10.5012,3.65323,-0.26842
386.7,10.5833,3.71947,-0.268417
389.4,10.6659,3.78404,-0.269594
392.1,10.7482,3.85581,-0.268726
394.8,10.8306,3.92616,-0.2681
397.5,10.913,4.00827,-0.268542
400.2,10.9958,4.11454,-0.269411
402.9,11.0785,4.25624,-0.272284
405.6,11.1618,4.4295,-0.2763
408.3,11.2451,4.63649,-0.279325
411,11.3285,4.90545,-0.280332
413.7,11.4122,5.22896,-0.280774
416.4,11.4964,5.62282,-0.281804
419.1,11.5809,6.07519,-0.28468
421.8,11.6657,6.58007,-0.289397
424.5,11.7504,7.07949,-0.291018
427.2,11.8355,7.49168,-0.295427
429.9,11.9192,7.72912,-0.300412
432.6,12.0027,7.77335,-0.306418
435.3,12.0858,7.61878,-0.313603
438,12.1679,7.28013,-0.318649
440.7,12.2499,6.79147,-0.324459
443.4,12.3313,6.24309,-0.333061
446.1,12.4134,5.78187,-0.341476
448.8,12.4962,5.47013,-0.356503
451.5,12.579,5.294,-0.373302
454.2,12.6626,5.23243,-0.389955
456.9,12.7461,5.24756,-0.41158
459.6,12.8304,5.29957,-0.433289
462.3,12.9146,5.35228,-0.457386
465,12.9989,5.42889,-0.482622
467.7,13.0831,5.46867,-0.509483
470.4,13.1677,5.51218,-0.54303
473.1,13.2521,5.53353,-0.574728
475.8,13.3367,5.54018,-0.608075
478.5,13.421,5.53862,-0.643103
481.2,13.5056,5.52034,-0.679386
483.9,13.5897,5.479,-0.717501
486.6,13.6744,5.4177,-0.753176
489.3,13.7587,5.33591,-0.79039
492,13.8435,5.24635,-0.828813
494.7,13.9276,5.13161,-0.862515
497.4,14.0124,4.99322,-0.894756
500.1,14.0967,4.84409,-0.928885
502.8,14.1812,4.68497,-0.963269
505.5,14.2657,4.5291,-0.98986
508.2,14.3503,4.3754,-1.0186
510.9,14.4353,4.23802,-1.04354
513.6,14.52,4.11062,-1.07021
516.3,14.6047,3.97199,-1.09473
519,14.6899,3.86637,-1.11994
521.7,14.775,3.76164,-1.14448
524.4,14.8605,3.68437,-1.16509
527.1,14.9458,3.61638,-1.18528
529.8,15.0315,3.54187,-1.20544
532.5,15.117,3.49657,-1.22529
535.2,15.2022,3.45748,-1.24244
537.9,15.2884,3.40461,-1.2616
540.6,15.374,3.35959,-1.28028
543.3,15.4602,3.33224,-1.301
546,15.5461,3.28909,-1.32326
548.7,15.6321,3.25412,-1.34091
551.4,15.7183,3.21936,-1.36174
554.1,15.8045,3.17699,-1.37922
556.8,15.8903,3.14019,-1.39706
559.5,15.9765,3.09545,-1.41448
562.2,16.0628,3.04398,-1.43304
564.9,16.149,2.99038,-1.45224
567.6,16.235,2.93612,-1.46664
570.3,16.3216,2.869,-1.48409
573,16.4081,2.81127,-1.50114
575.7,16.4946,2.75176,-1.51534
578.4,16.5811,2.68108,-1.53204
581.1,16.6675,2.60664,-1.54961
583.8,16.7543,2.52743,-1.56578
586.5,16.8409,2.44787,-1.57686
589.2,16.9274,2.3603,-1.59834
591.9,17.0144,2.28603,-1.61345
594.6,17.101,2.20593,-1.62966
597.3,17.1881,2.134,-1.64376
600,17.2746,2.0755,-1.65125
602.7,17.3616,2.01174,-1.67145
605.4,17.4491,1.95011,-1.68562
608.1,17.5359,1.8965,-1.69487
610.8,17.6229,1.86114,-1.70474
613.5,17.7104,1.83591,-1.71605
616.2,17.7977,1.82097,-1.73177
618.9,17.8849,1.81015,-1.74001
621.6,17.9713,1.79428,-1.74869
624.3,18.0596,1.7951,-1.75727
627,18.1474,1.81963,-1.76462
629.7,18.2347,1.83649,-1.77358
632.4,18.3222,1.8587,-1.78306
635.1,18.41,1.88782,-1.79237
637.8,18.4976,1.92473,-1.79635
640.5,18.5855,1.96704,-1.80186
643.2,18.6732,2.01021,-1.80989
645.9,18.7608,2.03907,-1.81662
648.6,18.8486,2.07443,-1.82425
651.3,18.9358,2.10916,-1.83294
654,19.0238,2.1339,-1.8379
656.7,19.1118,2.18606,-1.84291
659.4,19.1997,2.22399,-1.84945
662.1,19.2877,2.2683,-1.85419
664.8,19.3755,2.27631,-1.85851
667.5,19.4633,2.31592,-1.86372
670.2,19.5514,2.34147,-1.87067
672.9,19.639,2.37001,-1.87485
675.6,19.7269,2.37685,-1.87748
678.3,19.8153,2.39905,-1.87975
681,19.9031,2.41655,-1.88632
683.7,19.9912,2.43699,-1.89233
686.4,20.0788,2.44857,-1.89334
689.1,20.1671,2.47216,-1.89855
691.8,20.2554,2.4731,-1.90494
694.5,20.3435,2.48224,-1.91067
697.2,20.4313,2.48873,-1.91216
699.9,20.5196,2.48355,-1.91397
702.6,20.6074,2.48327,-1.91876
705.3,20.696,2.48487,-1.92021
708,20.7845,2.49587,-1.92389
710.7,20.8727,2.49085,-1.92898
713.4,20.9614,2.49378,-1.93073
716.1,21.0499,2.45722,-1.93604
718.8,21.1382,2.43144,-1.94149
721.5,21.2266,2.4028,-1.9479
724.2,21.315,2.38962,-1.95093
726.9,21.4027,2.37236,-1.95279
729.6,21.4921,2.3552,-1.95903
732.3,21.5804,2.32101,-1.96617
735,21.6691,2.29432,-1.96852
737.7,21.7575,2.25541,-1.96919
740.4,21.8458,2.22416,-1.97346
743.1,21.9344,2.1735,-1.97534
745.8,22.0229,2.11645,-1.97942
748.5,22.1113,2.06903,-1.98141
751.2,22.1997,2.0108,-1.98487
753.9,22.2881,1.922,-1.99031
756.6,22.3768,1.86455,-1.99629
759.3,22.4656,1.78283,-1.99681
762,22.5543,1.70922,-2.00317
764.7,22.6427,1.63542,-2.00976
767.4,22.7315,1.56057,-2.01429
770.1,22.8203,1.47003,-2.01939
772.8,22.9093,1.36693,-2.02044
775.5,22.9984,1.2902,-2.01942
778.2,23.0871,1.19895,-2.02323
780.9,23.1761,1.0995,-2.02685
783.6,23.2651,1.02799,-2.03156
786.3,23.3542,0.970804,-2.03652
789,23.4434,0.879891,-2.04212
791.7,23.5323,0.797736,-2.04624
794.4,23.6216,0.715241,-2.04869
797.1,23.7108,0.653864,-2.05021
799.8,23.7999,0.601477,-2.05366
802.5,23.8893,0.541139,-2.05512
805.2,23.9789,0.460717,-2.05777
807.9,24.0681,0.417841,-2.06102
810.6,24.1574,0.360829,-2.06451
813.3,24.2468,0.308278,-2.06535
816,24.3362,0.258443,-2.06666
818.7,24.4257,0.225534,-2.0692
821.4,24.5153,0.172428,-2.07015
824.1,24.6051,0.142235,-2.07092
826.8,24.6948,0.123239,-2.07095
829.5,24.7844,0.0793766,-2.07508
832.2,24.8745,0.0528662,-2.078
834.9,24.9641,0.0269947,-2.08161
837.6,25.0544,0.00331004,-2.08302
840,25.1341,-0.023145,-2.08128