File: 01_Data/High_Temp_Nylon_SCBA_Nosecup/STA/N2/10K_min/High_Temp_Nylon_SCBA_Nosecup_STA_N2_10KData_251010_R2.csv
Temp./C,Time/min,DSC/(mW/mg),Mass loss/mg
50.0,0.0,0.745025,-0.00714149
52.5,0.328906,0.797127,-0.00581491
55,0.641985,0.842725,-0.00764923
57.5,0.943043,0.884476,-0.00830378
60,1.23796,0.922509,-0.0070307
62.5,1.52159,0.956605,-0.00751343
65,1.80317,0.984203,-0.00729858
67.5,2.07905,1.00334,-0.00813006
70,2.3497,1.01651,-0.00945087
72.5,2.61572,1.0359,-0.00801986
75,2.87708,1.06532,-0.00801105
77.5,3.13767,1.07402,-0.0106599
80,3.39619,1.09379,-0.00923
82.5,3.65124,1.1084,-0.00922201
85,3.9049,1.14007,-0.00922
87.5,4.1571,1.16207,-0.00922997
90,4.406,1.18281,-0.00922162
92.5,4.65443,1.21623,-0.01054
95,4.90132,1.22511,-0.00909234
97.5,5.14267,1.23378,-0.0100204
100,5.39014,1.23617,-0.00992406
102.5,5.63303,1.23876,-0.01032
105,5.87501,1.24295,-0.0103198
107.5,6.11741,1.23747,-0.0111792
110,6.35878,1.2401,-0.0116432
112.5,6.59961,1.24742,-0.01164
115,6.84037,1.26159,-0.00995597
117.5,7.08183,1.26763,-0.0106462
120,7.32145,1.28344,-0.0119693
122.5,7.56347,1.29017,-0.0116378
125,7.80222,1.303,-0.00999004
127.5,8.04104,1.31646,-0.0126648
130,8.28026,1.32783,-0.0126486
132.5,8.51878,1.33586,-0.0116388
135,8.75608,1.35027,-0.0113094
137.5,8.99555,1.36055,-0.0109774
140,9.23188,1.36808,-0.01263
142.5,9.46907,1.37918,-0.0113101
145,9.70624,1.3768,-0.0119601
147.5,9.94269,1.38157,-0.0136014
150,10.1789,1.40316,-0.014611
152.5,10.4156,1.41363,-0.0119711
155,10.651,1.42573,-0.0145951
157.5,10.886,1.42381,-0.01427
160,11.1221,1.43078,-0.0155926
162.5,11.3582,1.4305,-0.0123012
165,11.5932,1.44569,-0.01427
167.5,11.8291,1.45101,-0.0142356
170,12.0653,1.45733,-0.0133996
172.5,12.301,1.47858,-0.0123287
175,12.5363,1.48152,-0.01306
177.5,12.772,1.48978,-0.0143826
180,13.0075,1.49998,-0.01307
182.5,13.2433,1.50126,-0.0130474
185,13.4762,1.49342,-0.0143789
187.5,13.7136,1.49719,-0.01207
190,13.9469,1.51534,-0.01306
192.5,14.1827,1.51598,-0.01373
195,14.4174,1.53288,-0.0146016
197.5,14.6539,1.53756,-0.0130701
200,14.889,1.54161,-0.01405
202.5,15.1225,1.54812,-0.0140519
205,15.3579,1.5645,-0.01504
207.5,15.5935,1.56425,-0.01406
210,15.8276,1.56982,-0.01439
212.5,16.0623,1.58463,-0.01405
215,16.2986,1.59075,-0.01405
217.5,16.5322,1.60819,-0.01405
220,16.7694,1.61668,-0.0153729
222.5,17.0036,1.62564,-0.01406
225,17.2369,1.64055,-0.01537
227.5,17.4755,1.66365,-0.0153704
230,17.7097,1.68084,-0.0153736
232.5,17.9476,1.70613,-0.01537
235,18.1832,1.71478,-0.0144831
237.5,18.4199,1.73768,-0.01439
240,18.6554,1.77498,-0.01472
242.5,18.8922,1.81481,-0.01471
245,19.1279,1.90077,-0.01471
247.5,19.3678,2.07389,-0.0160295
250,19.608,2.41755,-0.0147023
252.5,19.8499,2.91248,-0.0147133
255,20.0908,3.29399,-0.0143799
257.5,20.332,3.66144,-0.01307
260,20.573,3.90969,-0.01439
262.5,20.7982,2.93841,-0.01472
265,21.0228,1.92673,-0.0140653
267.5,21.2573,1.68795,-0.0153699
270,21.4923,1.62077,-0.01471
272.5,21.7283,1.61756,-0.01471
275,21.9627,1.60677,-0.0153735
277.5,22.2001,1.60224,-0.01438
280,22.4384,1.61138,-0.0157
282.5,22.6754,1.6186,-0.0156978
285,22.9129,1.62495,-0.016361
287.5,23.1497,1.61884,-0.0157
290,23.3886,1.62965,-0.01636
292.5,23.6264,1.64097,-0.0152767
295,23.8642,1.65336,-0.0176799
297.5,24.1037,1.65855,-0.018
300,24.342,1.65331,-0.01735
302.5,24.5804,1.65054,-0.01932
305,24.8189,1.6555,-0.0180082
307.5,25.0571,1.65146,-0.01867
310,25.2955,1.65431,-0.0180102
312.5,25.5329,1.65854,-0.02064
315,25.772,1.65956,-0.01933
317.5,26.0111,1.65633,-0.02064
320,26.2491,1.67315,-0.02129
322.5,26.4901,1.68466,-0.0213007
325,26.7292,1.68771,-0.0239151
327.5,26.9676,1.6849,-0.0238856
330,27.2077,1.68374,-0.0239282
332.5,27.4476,1.69611,-0.0266078
335,27.6866,1.72108,-0.0270768
337.5,27.9272,1.73085,-0.0277078
340,28.1663,1.76686,-0.0286604
342.5,28.4072,1.78805,-0.0309879
345,28.6469,1.83012,-0.0338244
347.5,28.8871,1.8625,-0.03744
350,29.128,1.88373,-0.0413914
352.5,29.368,1.89408,-0.0440307
355,29.6092,1.90261,-0.0463302
357.5,29.8484,1.92523,-0.052915
360,30.0908,1.96512,-0.0557858
362.5,30.3324,1.99364,-0.061645
365,30.5741,2.05816,-0.0687147
367.5,30.8173,2.12077,-0.0770959
370,31.0597,2.22142,-0.085604
372.5,31.3015,2.31953,-0.0960054
375,31.5445,2.43982,-0.110679
377.5,31.7865,2.56034,-0.125332
380,32.0292,2.70483,-0.143934
382.5,32.2736,2.85171,-0.166729
385,32.5167,3.01884,-0.192232
387.5,32.7608,3.19317,-0.218222
390,33.0028,3.36604,-0.252946
392.5,33.249,3.53341,-0.288542
395,33.4935,3.68807,-0.331247
397.5,33.7381,3.84085,-0.381142
400,33.9822,3.99192,-0.433559
402.5,34.2247,4.09468,-0.488704
405,34.4704,4.17353,-0.549011
407.5,34.7147,4.21145,-0.614744
410,34.957,4.21116,-0.681365
412.5,35.198,4.20228,-0.75151
415,35.4417,4.1586,-0.825754
417.5,35.6844,4.11468,-0.900586
420,35.927,4.04605,-0.977086
422.5,36.1695,3.96038,-1.05511
425,36.4119,3.84059,-1.13501
427.5,36.6537,3.68279,-1.21778
430,36.8962,3.50087,-1.29663
432.5,37.1354,3.27388,-1.37317
435,37.3783,3.0163,-1.4477
437.5,37.6189,2.7155,-1.51656
440,37.8608,2.41039,-1.58068
442.5,38.1023,2.13714,-1.63735
445,38.3443,1.9006,-1.69038
447.5,38.5865,1.69814,-1.73833
450,38.8294,1.5762,-1.78238
452.5,39.0741,1.49459,-1.82548
455,39.318,1.44616,-1.86916
457.5,39.5613,1.41063,-1.91027
460,39.8086,1.40012,-1.95288
462.5,40.0542,1.38666,-1.9981
465,40.2988,1.36265,-2.04294
467.5,40.5446,1.32849,-2.09052
470,40.7901,1.31091,-2.13747
472.5,41.0336,1.28774,-2.18686
475,41.2791,1.26153,-2.23622
477.5,41.5247,1.21939,-2.28673
480,41.7696,1.15966,-2.33928
482.5,42.0144,1.07065,-2.39005
485,42.2565,0.94826,-2.43646
487.5,42.5034,0.802949,-2.47957
490,42.7486,0.654275,-2.51435
492.5,42.9924,0.499112,-2.53907
495,43.2381,0.369955,-2.55553
497.5,43.4841,0.276635,-2.56573
500,43.7304,0.237374,-2.57036
502.5,43.9772,0.203429,-2.57188
505,44.2237,0.207113,-2.57452
507.5,44.4716,0.216928,-2.57583
510,44.7193,0.218964,-2.57715
512.5,44.9635,0.225582,-2.57715
515,45.2128,0.22119,-2.57814
517.5,45.4591,0.222303,-2.57749
520,45.7061,0.217287,-2.5788
522.5,45.9526,0.203451,-2.57847
525,46.1999,0.189998,-2.57978
527.5,46.4488,0.175823,-2.58011
530,46.696,0.170086,-2.57846
532.5,46.9427,0.151636,-2.57978
535,47.1911,0.144373,-2.5778
537.5,47.4388,0.136696,-2.57913
540,47.6869,0.1357,-2.57979
542.5,47.9355,0.126592,-2.58078
545,48.183,0.122515,-2.57979
547.5,48.4301,0.105318,-2.57978
550,48.679,0.0965048,-2.57979
552.5,48.9264,0.0965188,-2.57946
555,49.1748,0.0918111,-2.57979
557.5,49.4224,0.0937623,-2.58044
560,49.6715,0.0859397,-2.57912
562.5,49.9217,0.0825618,-2.58077
565,50.1698,0.0777279,-2.57925
567.5,50.4188,0.0652814,-2.57945
570,50.6673,0.0570692,-2.58077
572.5,50.9161,0.0535612,-2.58015
575,51.1647,0.0459651,-2.58012
577.5,51.4133,0.0323797,-2.58012
580,51.6617,0.039413,-2.58078
582.5,51.9104,0.0325476,-2.57946
585,52.1602,0.0208447,-2.58209
587.5,52.4081,0.00831282,-2.58077
590,52.6581,0.00180207,-2.58077
592.5,52.907,-0.0128833,-2.58175
595,53.1577,-0.0150153,-2.58143
597.5,53.4067,-0.0222144,-2.5811
600,53.6574,-0.0249491,-2.58143
602.5,53.9089,-0.0227044,-2.58177
605,54.1586,-0.0324044,-2.58177
607.5,54.4088,-0.0427613,-2.58307
610,54.6606,-0.0421731,-2.58176
612.5,54.9105,-0.0551777,-2.58209
615,55.1606,-0.0529537,-2.58446
617.5,55.4122,-0.0669413,-2.5844
620,55.6635,-0.0884892,-2.58275
622.5,55.9133,-0.103614,-2.58506
625,56.1645,-0.116043,-2.58374
627.5,56.4153,-0.124243,-2.58505
630,56.6664,-0.132603,-2.58506
632.5,56.9167,-0.144452,-2.58538
635,57.1681,-0.158563,-2.5867
637.5,57.4201,-0.169113,-2.58506
640,57.6719,-0.182433,-2.58668
642.5,57.9232,-0.210662,-2.58507
645,58.1753,-0.217408,-2.58637
647.5,58.427,-0.228191,-2.58747
650,58.6774,-0.239485,-2.58638
652.5,58.9279,-0.252112,-2.5864
655,59.1794,-0.257064,-2.58879
657.5,59.4305,-0.26971,-2.58844
660,59.6803,-0.260256,-2.58747
662.5,59.93,-0.270224,-2.58878
665,60.1814,-0.282199,-2.58885
667.5,60.4331,-0.285298,-2.58978
670,60.6843,-0.297793,-2.58845
672.5,60.9347,-0.301743,-2.58878
675,61.1876,-0.308414,-2.5901
677.5,61.4402,-0.288666,-2.58978
680,61.6916,-0.294568,-2.59142
682.5,61.9427,-0.297015,-2.59104
685,62.1957,-0.298454,-2.59109
687.5,62.4487,-0.298439,-2.59143
690,62.7002,-0.299922,-2.59113
692.5,62.953,-0.298063,-2.59043
695,63.2066,-0.310593,-2.59142
697.5,63.4587,-0.30292,-2.59142
700,63.7121,-0.30302,-2.59011
702.5,63.9641,-0.318864,-2.59077
705,64.2177,-0.305954,-2.5914
707.5,64.4711,-0.304949,-2.59175
710,64.7225,-0.32546,-2.59175
712.5,64.9752,-0.325964,-2.59307
715,65.228,-0.313312,-2.59326
717.5,65.4807,-0.302184,-2.59439
720,65.7343,-0.293294,-2.5934
722.5,65.9864,-0.291413,-2.59372
725,66.2404,-0.298689,-2.59372
727.5,66.4941,-0.286996,-2.59373
730,66.7459,-0.279062,-2.59373
732.5,66.9999,-0.2836,-2.59511
735,67.2525,-0.27994,-2.59367
737.5,67.505,-0.29166,-2.5934
740,67.7573,-0.283419,-2.59347
742.5,68.0085,-0.280219,-2.59471
745,68.2636,-0.270329,-2.59439
747.5,68.5157,-0.287196,-2.59472
750,68.769,-0.286296,-2.59472
752.5,69.0223,-0.279727,-2.59613
755,69.2765,-0.276282,-2.59504
757.5,69.5295,-0.276004,-2.59537
760,69.7825,-0.283193,-2.5944
762.5,70.0355,-0.292358,-2.59471
765,70.2887,-0.288075,-2.5957
767.5,70.5412,-0.293169,-2.59625
770,70.7948,-0.271534,-2.59637
772.5,71.0481,-0.290847,-2.59604
775,71.3011,-0.280579,-2.59603
777.5,71.5544,-0.285961,-2.59735
780,71.8068,-0.280319,-2.59603
782.5,72.0623,-0.273248,-2.59568
785,72.3164,-0.264642,-2.59735
787.5,72.5706,-0.272593,-2.59735
790,72.824,-0.269278,-2.59637