File: 01_Data/High_Temp_Nylon_SCBA_Nosecup/STA/N2/10K_min/High_Temp_Nylon_SCBA_Nosecup_STA_N2_10KData_251009_R1.csv
Temp./C,Time/min,DSC/(mW/mg),Mass loss/mg
50.0,0.0,0.662488,-0.0104949
52.5,0.328969,0.704443,-0.00986098
55,0.642821,0.752975,-0.0111923
57.5,0.945845,0.80102,-0.0102761
60,1.23873,0.831294,-0.011091
62.5,1.52426,0.862601,-0.0115215
65,1.80448,0.886762,-0.0112592
67.5,2.07926,0.899994,-0.01109
70,2.34794,0.918295,-0.0119361
72.5,2.61252,0.940537,-0.0111998
75,2.87404,0.951417,-0.0104547
77.5,3.13363,0.982883,-0.00978521
80,3.39013,0.993536,-0.01109
82.5,3.64777,1.01323,-0.0119429
85,3.89963,1.02416,-0.0110901
87.5,4.15065,1.04138,-0.0124079
90,4.40114,1.06612,-0.0125201
92.5,4.64918,1.09008,-0.0125198
95,4.89453,1.10219,-0.0121675
97.5,5.13997,1.11459,-0.0138399
100,5.38418,1.12148,-0.0130745
102.5,5.6256,1.11298,-0.01317
105,5.86958,1.11817,-0.012094
107.5,6.10839,1.11134,-0.012075
110,6.34926,1.1127,-0.01274
112.5,6.58918,1.11551,-0.0133894
115,6.83043,1.11683,-0.0134
117.5,7.07107,1.13447,-0.0147052
120,7.31097,1.1381,-0.0124096
122.5,7.54926,1.13983,-0.0114891
125,7.79205,1.14757,-0.0124
127.5,8.03141,1.15948,-0.0111998
130,8.26954,1.16349,-0.01241
132.5,8.50889,1.17742,-0.0133898
135,8.74615,1.18827,-0.01142
137.5,8.98233,1.20646,-0.0120751
140,9.22038,1.21561,-0.0124101
142.5,9.45765,1.21741,-0.01241
145,9.69491,1.22885,-0.0124099
147.5,9.93252,1.23583,-0.01208
150,10.168,1.24651,-0.0110902
152.5,10.4046,1.25522,-0.01241
155,10.6402,1.26179,-0.01239
157.5,10.8756,1.26837,-0.0124634
160,11.1122,1.2735,-0.0111205
162.5,11.347,1.28224,-0.0090492
165,11.5837,1.28139,-0.0113955
167.5,11.82,1.30006,-0.0120608
170,12.0538,1.3038,-0.00944999
172.5,12.292,1.30856,-0.01076
175,12.5272,1.31035,-0.0110902
177.5,12.7628,1.31672,-0.0120729
180,13.0004,1.32242,-0.0113853
182.5,13.2361,1.33585,-0.0104385
185,13.4709,1.33784,-0.0113038
187.5,13.7052,1.34525,-0.00977
190,13.942,1.3499,-0.0101
192.5,14.1754,1.35098,-0.01076
195,14.4134,1.36131,-0.00944
197.5,14.6492,1.36626,-0.00939318
200,14.8853,1.37592,-0.00846411
202.5,15.1217,1.38707,-0.00846
205,15.3583,1.3917,-0.00879
207.5,15.5949,1.41081,-0.0101002
210,15.8313,1.41738,-0.00911
212.5,16.0667,1.42742,-0.00911
215,16.3042,1.43936,-0.00912
217.5,16.5409,1.45178,-0.00813
220,16.7787,1.46288,-0.00944244
222.5,17.0138,1.47494,-0.00845302
225,17.2516,1.48613,-0.00945001
227.5,17.4877,1.50142,-0.00909527
230,17.7207,1.51656,-0.00843956
232.5,17.9608,1.53357,-0.00889198
235,18.196,1.54943,-0.00846
237.5,18.4319,1.56112,-0.00846
240,18.6694,1.59175,-0.00976717
242.5,18.9054,1.63257,-0.00812
245,19.1432,1.72578,-0.00813009
247.5,19.3822,1.89168,-0.00879
250,19.623,2.25029,-0.0081892
252.5,19.8652,2.74877,-0.00813
255,20.1066,3.13199,-0.00680895
257.5,20.3477,3.49785,-0.00812267
260,20.5872,3.73846,-0.00545128
262.5,20.8139,2.73244,-0.00779
265,21.0383,1.74724,-0.00647
267.5,21.2711,1.51261,-0.00712977
270,21.5052,1.4645,-0.00648
272.5,21.7434,1.45345,-0.00648032
275,21.9781,1.45931,-0.00648
277.5,22.2162,1.45547,-0.00648082
280,22.4534,1.45454,-0.00648
282.5,22.6899,1.45883,-0.00549
285,22.9265,1.4688,-0.00747
287.5,23.1645,1.47266,-0.0054914
290,23.4012,1.46501,-0.00681
292.5,23.6396,1.47547,-0.00614064
295,23.8785,1.47212,-0.00691606
297.5,24.116,1.47004,-0.00704766
300,24.3547,1.46919,-0.0076356
302.5,24.5928,1.47998,-0.00714
305,24.8313,1.47889,-0.00813015
307.5,25.0689,1.48181,-0.00713
310,25.3075,1.49558,-0.00911
312.5,25.546,1.49787,-0.00878006
315,25.7849,1.50325,-0.0107647
317.5,26.0257,1.51356,-0.0114814
320,26.2639,1.52711,-0.0101
322.5,26.5041,1.52158,-0.0112732
325,26.7422,1.52512,-0.01142
327.5,26.9815,1.52939,-0.01274
330,27.2194,1.54198,-0.01208
332.5,27.4613,1.56341,-0.0134002
335,27.7004,1.59264,-0.01504
337.5,27.9408,1.60544,-0.01702
340,28.1805,1.62825,-0.01834
342.5,28.4194,1.65566,-0.01965
345,28.6598,1.67792,-0.0216289
347.5,28.8995,1.70065,-0.0258001
350,29.1396,1.71619,-0.0271193
352.5,29.3795,1.73328,-0.0307608
355,29.62,1.75667,-0.0356801
357.5,29.8621,1.77605,-0.0402926
360,30.1026,1.81882,-0.043794
362.5,30.3439,1.86892,-0.0508211
365,30.586,1.94107,-0.0561708
367.5,30.8278,2.02051,-0.0657622
370,31.0697,2.11963,-0.0739507
372.5,31.3121,2.22362,-0.0837146
375,31.5548,2.32885,-0.0991958
377.5,31.7991,2.46249,-0.114054
380,32.0417,2.60551,-0.132858
382.5,32.286,2.76531,-0.154933
385,32.5305,2.91133,-0.180421
387.5,32.7735,3.07944,-0.210203
390,33.0198,3.25883,-0.244096
392.5,33.2627,3.43612,-0.281528
395,33.5077,3.60289,-0.324791
397.5,33.7519,3.75716,-0.373913
400,33.9982,3.88933,-0.427833
402.5,34.242,4.00096,-0.48545
405,34.4859,4.08858,-0.547846
407.5,34.7301,4.13214,-0.611219
410,34.9727,4.14374,-0.679943
412.5,35.2158,4.13415,-0.751366
415,35.4566,4.09457,-0.823583
417.5,35.7001,4.05285,-0.89847
420,35.9419,3.97471,-0.977844
422.5,36.1844,3.87945,-1.05782
425,36.4256,3.74521,-1.13645
427.5,36.669,3.58643,-1.21658
430,36.9105,3.38625,-1.29454
432.5,37.1512,3.15317,-1.37286
435,37.3924,2.87112,-1.44413
437.5,37.6325,2.56784,-1.51284
440,37.8735,2.27055,-1.57457
442.5,38.1153,1.98338,-1.63203
445,38.3565,1.74129,-1.68241
447.5,38.5991,1.5505,-1.73015
450,38.8419,1.43314,-1.77142
452.5,39.086,1.35054,-1.81277
455,39.3293,1.3123,-1.85579
457.5,39.5772,1.27315,-1.89727
460,39.8196,1.26672,-1.93803
462.5,40.0651,1.2386,-1.98222
465,40.3101,1.22437,-2.02707
467.5,40.5548,1.20366,-2.07205
470,40.8006,1.17773,-2.12162
472.5,41.0466,1.13033,-2.16927
475,41.2923,1.12209,-2.21916
477.5,41.536,1.08394,-2.27006
480,41.7833,1.02105,-2.32351
482.5,42.0272,0.911763,-2.37177
485,42.2718,0.801044,-2.41912
487.5,42.5163,0.658024,-2.46103
490,42.7596,0.5137,-2.49233
492.5,43.0067,0.359679,-2.51696
495,43.2514,0.215819,-2.5306
497.5,43.4969,0.136909,-2.53945
500,43.7432,0.11446,-2.54345
502.5,43.9893,0.0832654,-2.54608
505,44.2372,0.0962187,-2.54608
507.5,44.4835,0.104574,-2.5474
510,44.7309,0.0870224,-2.54739
512.5,44.9782,0.0932705,-2.54872
515,45.2236,0.0601103,-2.55036
517.5,45.4717,0.0459158,-2.5497
520,45.7196,0.0490072,-2.55201
522.5,45.967,0.0437903,-2.5497
525,46.2142,0.0437729,-2.55102
527.5,46.4627,0.0358437,-2.55037
530,46.7102,0.0525593,-2.55201
532.5,46.9568,0.0433906,-2.55139
535,47.2033,0.0360744,-2.55233
537.5,47.4514,0.030806,-2.5507
540,47.6983,0.0317232,-2.55133
542.5,47.9472,0.0257044,-2.55069
545,48.1937,0.0203497,-2.55069
547.5,48.4416,0.0108821,-2.55135
550,48.6897,0.0242445,-2.55003
552.5,48.9363,0.00611949,-2.55168
555,49.1831,-0.000307296,-2.553
557.5,49.4319,-0.00509749,-2.55234
560,49.679,-0.0108483,-2.55234
562.5,49.9254,-0.0159946,-2.55102
565,50.176,-0.0221804,-2.55232
567.5,50.4246,-0.0283849,-2.55168
570,50.6727,-0.059302,-2.55168
572.5,50.9222,-0.0577144,-2.55136
575,51.1724,-0.0728188,-2.55234
577.5,51.4207,-0.0677708,-2.55168
580,51.6692,-0.0586693,-2.55234
582.5,51.9192,-0.0636787,-2.55197
585,52.1679,-0.0675091,-2.55201
587.5,52.4189,-0.0669111,-2.55254
590,52.6675,-0.0693614,-2.55256
592.5,52.9157,-0.092754,-2.55256
595,53.1645,-0.0945892,-2.55221
597.5,53.4143,-0.0810937,-2.5529
600,53.6636,-0.0888298,-2.55519
602.5,53.914,-0.0953734,-2.55387
605,54.1625,-0.104311,-2.55519
607.5,54.4127,-0.103266,-2.55519
610,54.6628,-0.109301,-2.55486
612.5,54.9128,-0.108349,-2.55519
615,55.1635,-0.112768,-2.55519
617.5,55.4137,-0.121253,-2.55388
620,55.6645,-0.117152,-2.55454
622.5,55.9136,-0.128054,-2.55454
625,56.1653,-0.139244,-2.55718
627.5,56.4162,-0.149331,-2.55519
630,56.6671,-0.153927,-2.55585
632.5,56.918,-0.161694,-2.55453
635,57.1687,-0.178604,-2.55717
637.5,57.4182,-0.190522,-2.55717
640,57.6684,-0.196926,-2.55586
642.5,57.9187,-0.213404,-2.55586
645,58.1691,-0.218213,-2.55586
647.5,58.4202,-0.230181,-2.55586
650,58.6707,-0.22838,-2.55717
652.5,58.9217,-0.23327,-2.55684
655,59.1737,-0.239419,-2.55717
657.5,59.4253,-0.250093,-2.55756
660,59.6783,-0.256537,-2.55783
662.5,59.9298,-0.264872,-2.56058
665,60.1809,-0.26327,-2.55794
667.5,60.4324,-0.27768,-2.55892
670,60.6843,-0.282897,-2.55794
672.5,60.9357,-0.292567,-2.55926
675,61.1866,-0.298421,-2.56068
677.5,61.4375,-0.307349,-2.55937
680,61.6884,-0.309863,-2.56004
682.5,61.9393,-0.317867,-2.562
685,62.1903,-0.335459,-2.56101
687.5,62.4414,-0.323337,-2.56101
690,62.6935,-0.312041,-2.56027
692.5,62.9458,-0.317182,-2.56134
695,63.1964,-0.328291,-2.56068
697.5,63.448,-0.319412,-2.56102
700,63.7,-0.315212,-2.56331
702.5,63.9523,-0.297986,-2.56233
705,64.2052,-0.288357,-2.56364
707.5,64.4566,-0.281071,-2.56222
710,64.7108,-0.283574,-2.56354
712.5,64.9637,-0.292315,-2.56222
715,65.2157,-0.298297,-2.56354
717.5,65.4696,-0.282953,-2.56419
720,65.723,-0.288163,-2.56287
722.5,65.9753,-0.280021,-2.56551
725,66.2284,-0.269142,-2.56551
727.5,66.4812,-0.26971,-2.56412
730,66.7345,-0.258622,-2.56552
732.5,66.9875,-0.261762,-2.56837
735,67.2397,-0.25424,-2.56529
737.5,67.4926,-0.241911,-2.56562
740,67.746,-0.234735,-2.56543
742.5,67.9989,-0.22816,-2.56562
745,68.2521,-0.214551,-2.56529
747.5,68.5038,-0.194124,-2.56595
750,68.7576,-0.19439,-2.56695
752.5,69.0121,-0.171068,-2.56563
755,69.2667,-0.167872,-2.56814
757.5,69.5216,-0.165298,-2.56803
760,69.7739,-0.161235,-2.56551
762.5,70.0277,-0.143832,-2.56793
765,70.2814,-0.138387,-2.56814
767.5,70.5345,-0.13358,-2.56683
770,70.7874,-0.126672,-2.56816
772.5,71.0419,-0.134592,-2.56749
775,71.2975,-0.126581,-2.5681
777.5,71.5514,-0.119428,-2.57009
780,71.806,-0.118245,-2.56793
782.5,72.0606,-0.110472,-2.56793
785,72.3153,-0.123258,-2.56925
787.5,72.5698,-0.108299,-2.56826
790,72.8244,-0.124229,-2.56858