File: 01_Data/Fiber_Reinforced_Helmet_Shell/STA/N2/30K_min/Fiber_Reinforced_Helmet_Shell_STA_N2_30KData_250501_R4.csv
Temp./C,Time/min,DSC/(mW/mg),Mass loss/mg
60.0,0.0,0.923715,-0.00217245
62.3,0.134231,1.06202,0.00409641
64.6,0.256758,1.18394,0.00307643
66.9,0.373348,1.28135,-0.0025896
69.2,0.48395,1.37842,0.0044881
71.5,0.589297,1.45755,0.00307117
73.8,0.691351,1.54156,0.00240551
76.1,0.790873,1.60787,0.00313646
78.4,0.887717,1.66582,0.00359738
80.7,0.983084,1.72063,0.00354414
83,1.07587,1.75515,0.00290298
85.3,1.16707,1.79783,0.00203566
87.6,1.25631,1.84078,0.0023996
89.9,1.34562,1.87164,-0.000415798
92.2,1.43242,1.90769,-0.000709918
94.5,1.51895,1.95081,0.00433084
96.8,1.60458,1.98717,-0.00251187
99.1,1.68887,2.00733,-0.00148115
101.4,1.77291,2.04218,0.00012473
103.7,1.85618,2.07469,-0.00100831
106,1.9387,2.11831,-0.000735675
108.3,2.02038,2.14639,0.00291157
110.6,2.10236,2.18532,-0.00240722
112.9,2.18339,2.21115,-0.0036497
115.2,2.26405,2.23982,-0.0024191
117.5,2.34452,2.27611,-0.00239313
119.8,2.42422,2.29607,-0.00110595
122.1,2.50335,2.31335,-0.00340108
124.4,2.58224,2.34733,-0.0024068
126.7,2.66043,2.36699,-0.00238226
129,2.73834,2.39615,-0.00240715
131.3,2.81524,2.41713,-0.00347523
133.6,2.89138,2.42877,-0.00564498
135.9,2.96852,2.44897,-0.00637511
138.2,3.04446,2.4741,-0.00604272
140.5,3.11959,2.48441,-0.00471987
142.8,3.19492,2.51268,-0.00603665
145.1,3.26941,2.52897,-0.00603006
147.4,3.34369,2.53496,-0.00739567
149.7,3.41764,2.55506,-0.00938737
152,3.49156,2.55858,-0.00714002
154.3,3.56467,2.58201,-0.00713
156.6,3.63792,2.58778,-0.00714462
158.9,3.71077,2.60271,-0.00844989
161.2,3.78375,2.61512,-0.00845917
163.5,3.85607,2.61674,-0.0110653
165.8,3.92842,2.61973,-0.01109
168.1,4.00015,2.63287,-0.0110871
170.4,4.07165,2.64749,-0.0124102
172.7,4.14366,2.66384,-0.0119057
175,4.21532,2.68627,-0.0130558
177.3,4.28719,2.70709,-0.015127
179.6,4.35833,2.73684,-0.0163512
181.9,4.42927,2.75141,-0.0177771
184.2,4.49986,2.78068,-0.0196703
186.5,4.57066,2.82369,-0.01976
188.8,4.64061,2.84876,-0.0197567
191.1,4.71076,2.88508,-0.0197747
193.4,4.78082,2.91892,-0.0210698
195.7,4.85047,2.96022,-0.02107
198,4.9201,2.98659,-0.0210717
200.3,4.98978,3.01401,-0.0223891
202.6,5.05935,3.03895,-0.0223697
204.9,5.12872,3.07618,-0.0230501
207.2,5.19816,3.12482,-0.02305
209.5,5.26732,3.15939,-0.0230036
211.8,5.33649,3.20066,-0.0259906
214.1,5.4056,3.24966,-0.0259531
216.4,5.47462,3.28318,-0.02656
218.7,5.54347,3.30818,-0.0278638
221,5.61231,3.34394,-0.0292066
223.3,5.68145,3.38397,-0.0305152
225.6,5.74985,3.42306,-0.0305096
227.9,5.81851,3.44452,-0.0318356
230.2,5.8872,3.47906,-0.0326988
232.5,5.95556,3.50662,-0.0344828
234.8,6.02408,3.52493,-0.0357799
237.1,6.0925,3.54742,-0.0364753
239.4,6.16087,3.56652,-0.0373718
241.7,6.22938,3.59133,-0.0385986
244,6.29793,3.60724,-0.0398671
246.3,6.36581,3.63638,-0.0433042
248.6,6.43417,3.65035,-0.0460185
250.9,6.5024,3.67877,-0.0496453
253.2,6.57052,3.69446,-0.0529091
255.5,6.63869,3.71262,-0.0522448
257.8,6.70704,3.74034,-0.05361
260.1,6.77505,3.77192,-0.0557525
262.4,6.84338,3.79533,-0.0586574
264.7,6.91112,3.83742,-0.0624706
267,6.97857,3.86352,-0.066725
269.3,7.04737,3.89754,-0.071407
271.6,7.11546,3.92833,-0.0763878
273.9,7.18337,3.94362,-0.080733
276.2,7.25137,3.94965,-0.0846639
278.5,7.31927,3.93559,-0.0906941
280.8,7.38747,3.93939,-0.0962599
283.1,7.4552,3.90939,-0.103293
285.4,7.52272,3.885,-0.109806
287.7,7.59106,3.85197,-0.115727
290,7.65893,3.81802,-0.12371
292.3,7.72694,3.77024,-0.131736
294.6,7.79472,3.73198,-0.139852
296.9,7.8624,3.68587,-0.14802
299.2,7.93064,3.64286,-0.15677
301.5,7.99872,3.5888,-0.169672
303.8,8.06645,3.53272,-0.181674
306.1,8.13446,3.45927,-0.194341
308.4,8.20231,3.35494,-0.20797
310.7,8.26984,3.1634,-0.224167
313,8.3372,2.92261,-0.239812
315.3,8.40472,2.68286,-0.259977
317.6,8.47219,2.5348,-0.281628
319.9,8.54047,2.52356,-0.304609
322.2,8.60916,2.59575,-0.324959
324.5,8.67791,2.71515,-0.336196
326.8,8.74668,2.82759,-0.367294
329.1,8.81527,2.94115,-0.378811
331.4,8.88436,3.02975,-0.391715
333.7,8.95322,3.09992,-0.40339
336,9.02207,3.16402,-0.41542
338.3,9.09087,3.20915,-0.426718
340.6,9.15955,3.25763,-0.4373
342.9,9.22884,3.29833,-0.449913
345.2,9.29774,3.33162,-0.463236
347.5,9.36681,3.35918,-0.469371
349.8,9.43547,3.38062,-0.479716
352.1,9.50479,3.40876,-0.491584
354.4,9.57396,3.41805,-0.503948
356.7,9.64258,3.42875,-0.514166
359,9.71222,3.43839,-0.526871
361.3,9.78148,3.43537,-0.537395
363.6,9.85061,3.43344,-0.547071
365.9,9.91999,3.42034,-0.558596
368.2,9.98941,3.42172,-0.570502
370.5,10.0585,3.41032,-0.581418
372.8,10.1284,3.40588,-0.592263
375.1,10.1977,3.40566,-0.60174
377.4,10.2677,3.39664,-0.614097
379.7,10.3371,3.39639,-0.624675
382,10.4068,3.39902,-0.633504
384.3,10.4768,3.39798,-0.64511
386.6,10.5469,3.40572,-0.655956
388.9,10.6166,3.40728,-0.667771
391.2,10.6863,3.42147,-0.67915
393.5,10.7569,3.43674,-0.693042
395.8,10.8268,3.45084,-0.708007
398.1,10.8972,3.4688,-0.720449
400.4,10.9674,3.49142,-0.735998
402.7,11.0381,3.51442,-0.751921
405,11.1082,3.53773,-0.772607
407.3,11.179,3.56735,-0.786568
409.6,11.2493,3.59027,-0.793933
411.9,11.3199,3.62542,-0.811986
414.2,11.3907,3.65126,-0.829669
416.5,11.4617,3.65971,-0.849492
418.8,11.5317,3.67249,-0.870465
421.1,11.6032,3.68025,-0.892537
423.4,11.6738,3.66936,-0.913292
425.7,11.7446,3.64916,-0.936028
428,11.8154,3.61323,-0.958513
430.3,11.8861,3.56976,-0.985426
432.6,11.957,3.51226,-1.00569
434.9,12.0277,3.43282,-1.0281
437.2,12.0987,3.34668,-1.05088
439.5,12.1696,3.25387,-1.07189
441.8,12.2403,3.13772,-1.09412
444.1,12.3112,3.02605,-1.11506
446.4,12.3824,2.91299,-1.13534
448.7,12.4534,2.79699,-1.15341
451,12.5244,2.68188,-1.16915
453.3,12.5958,2.56825,-1.18496
455.6,12.6671,2.46886,-1.20142
457.9,12.7385,2.36531,-1.21268
460.2,12.8099,2.26894,-1.22475
462.5,12.8813,2.18465,-1.23559
464.8,12.9529,2.10149,-1.2439
467.1,13.0245,2.02771,-1.25401
469.4,13.0966,1.9691,-1.2671
471.7,13.1683,1.91477,-1.27083
474,13.2403,1.85655,-1.27605
476.3,13.3126,1.81436,-1.28187
478.6,13.3845,1.77707,-1.28898
480.9,13.4565,1.73899,-1.29344
483.2,13.5287,1.69739,-1.2984
485.5,13.6009,1.67264,-1.30347
487.8,13.6734,1.64054,-1.30808
490.1,13.7456,1.62267,-1.31484
492.4,13.8181,1.59648,-1.3215
494.7,13.891,1.57646,-1.32223
497,13.9635,1.56495,-1.3246
499.3,14.0361,1.5395,-1.32741
501.6,14.1089,1.51921,-1.32992
503.9,14.1807,1.49997,-1.33383
506.2,14.2544,1.47484,-1.33742
508.5,14.3271,1.46369,-1.34084
510.8,14.4,1.4417,-1.34238
513.1,14.4726,1.42724,-1.34533
515.4,14.5459,1.40874,-1.34879
517.7,14.6191,1.38803,-1.35175
520,14.6923,1.37161,-1.3546
522.3,14.7652,1.35621,-1.35764
524.6,14.8382,1.33235,-1.36054
526.9,14.9116,1.30824,-1.36195
529.2,14.9848,1.29723,-1.36416
531.5,15.058,1.28547,-1.3653
533.8,15.1312,1.26466,-1.36745
536.1,15.2044,1.24498,-1.37026
538.4,15.2777,1.2315,-1.37141
540.7,15.3513,1.2096,-1.37418
543,15.4248,1.1886,-1.37617
545.3,15.4981,1.17746,-1.37825
547.6,15.5721,1.15487,-1.37952
549.9,15.6449,1.13807,-1.38078
552.2,15.7188,1.12539,-1.385
554.5,15.7928,1.10837,-1.385
556.8,15.8662,1.08233,-1.38567
559.1,15.94,1.07447,-1.38698
561.4,16.0136,1.06705,-1.38911
563.7,16.0866,1.05946,-1.39243
566,16.1612,1.05249,-1.39512
568.3,16.2352,1.0504,-1.39494
570.6,16.309,1.05652,-1.39695
572.9,16.383,1.05014,-1.39784
575.2,16.4569,1.04973,-1.3996
577.5,16.5309,1.04699,-1.40192
579.8,16.6047,1.04966,-1.40217
582.1,16.6789,1.02388,-1.40358
584.4,16.753,1.00263,-1.40491
586.7,16.8275,0.987342,-1.40579
589,16.9017,0.962767,-1.40761
591.3,16.9762,0.951052,-1.40991
593.6,17.05,0.932606,-1.41083
595.9,17.1247,0.925218,-1.41082
598.2,17.1993,0.901972,-1.41248
600.5,17.2733,0.88874,-1.41533
602.8,17.348,0.877819,-1.41658
605.1,17.4225,0.870113,-1.41796
607.4,17.4971,0.857165,-1.41803
609.7,17.5714,0.83438,-1.42054
612,17.6459,0.811063,-1.42314
614.3,17.7205,0.808082,-1.42327
616.6,17.7951,0.799253,-1.42322
618.9,17.8696,0.778107,-1.42454
621.2,17.9444,0.753578,-1.42569
623.5,18.0185,0.741117,-1.42724
625.8,18.0934,0.738953,-1.42847
628.1,18.1679,0.722183,-1.42849
630.4,18.2425,0.703409,-1.42849
632.7,18.317,0.67639,-1.42844
635,18.3918,0.674215,-1.43112
637.3,18.4664,0.663698,-1.43244
639.6,18.5415,0.646297,-1.43243
641.9,18.6161,0.63935,-1.4344
644.2,18.6907,0.62313,-1.43576
646.5,18.7651,0.611478,-1.43574
648.8,18.8403,0.603666,-1.43538
651.1,18.9152,0.588261,-1.43541
653.4,18.9896,0.571619,-1.4355
655.7,19.065,0.557358,-1.43407
658,19.1395,0.552899,-1.43574
660.3,19.2148,0.556068,-1.43706
662.6,19.2898,0.539886,-1.43837
664.9,19.3644,0.528776,-1.43837
667.2,19.4396,0.512191,-1.43837
669.5,19.5148,0.506368,-1.43934
671.8,19.5894,0.50306,-1.4397
674.1,19.6643,0.50804,-1.441
676.4,19.7395,0.509029,-1.44116
678.7,19.8147,0.496918,-1.44232
681,19.8897,0.49213,-1.44408
683.3,19.9651,0.495407,-1.44425
685.6,20.0403,0.4936,-1.43963
687.9,20.1153,0.48327,-1.44013
690.2,20.1904,0.472567,-1.43956
692.5,20.2655,0.456997,-1.43913
694.8,20.341,0.443033,-1.44178
697.1,20.4162,0.4335,-1.44308
699.4,20.4914,0.433467,-1.44309
701.7,20.5668,0.415852,-1.44342
704,20.6421,0.398288,-1.44342
706.3,20.7179,0.382942,-1.44342
708.6,20.7933,0.372696,-1.44342
710.9,20.8688,0.35722,-1.44355
713.2,20.9446,0.342909,-1.44221
715.5,21.0203,0.331953,-1.445
717.8,21.0957,0.32902,-1.44616
720.1,21.1713,0.316253,-1.44682
722.4,21.247,0.294432,-1.44748
724.7,21.3233,0.293341,-1.44846
727,21.3987,0.281396,-1.44649
729.3,21.4747,0.27107,-1.4467
731.6,21.5503,0.259356,-1.4478
733.9,21.6262,0.254414,-1.44946
736.2,21.7021,0.247203,-1.44946
738.5,21.7782,0.228743,-1.44942
740,21.8276,0.224819,-1.4481