File: 01_Data/Fiber_Reinforced_Helmet_Shell/STA/N2/30K_min/Fiber_Reinforced_Helmet_Shell_STA_N2_30KData_250429_R2.csv
Temp./C,Time/min,DSC/(mW/mg),Mass loss/mg
60.0,0.0,0.882901,0.0124105
62.3,0.133654,1.01779,0.00542591
64.6,0.25699,1.13263,0.0119136
66.9,0.372612,1.24207,0.0106049
69.2,0.483019,1.32912,0.0119584
71.5,0.588655,1.41525,0.0105509
73.8,0.690562,1.48063,0.0114628
76.1,0.790092,1.54661,0.00936832
78.4,0.886906,1.59812,0.00887491
80.7,0.981963,1.65199,0.0107725
83,1.07505,1.69064,0.0106405
85.3,1.16653,1.73691,0.0106331
87.6,1.25632,1.76978,0.0114621
89.9,1.34514,1.80914,0.0101922
92.2,1.43227,1.83852,0.0097923
94.5,1.51856,1.87934,0.00934573
96.8,1.60378,1.91837,0.00771239
99.1,1.68851,1.93345,0.00743991
101.4,1.77162,1.9706,0.00789187
103.7,1.85466,1.99483,0.00925139
106,1.93802,2.02861,0.00961254
108.3,2.02031,2.05413,0.00911075
110.6,2.10187,2.09051,0.00796783
112.9,2.18318,2.12188,0.0077905
115.2,2.26363,2.14234,0.00778971
117.5,2.34392,2.16224,0.00648376
119.8,2.42333,2.1956,0.00648817
122.1,2.50268,2.2206,0.00922526
124.4,2.58193,2.23738,0.00678887
126.7,2.66035,2.25848,0.0054826
129,2.73821,2.2843,0.00564561
131.3,2.81462,2.30528,0.00520859
133.6,2.89208,2.31809,0.00394154
135.9,2.96907,2.33622,0.00367462
138.2,3.04516,2.34988,0.00262844
140.5,3.11991,2.37514,0.00394932
142.8,3.19523,2.39139,0.00264284
145.1,3.27059,2.40293,0.00264
147.4,3.34457,2.41792,0.00264
149.7,3.41849,2.42307,0.0026405
152,3.4916,2.43394,0.0013169
154.3,3.56591,2.44047,0.00132
156.6,3.63892,2.45187,0.00135265
158.9,3.71224,2.45346,-0.00131992
161.2,3.78497,2.4595,-0.00132003
163.5,3.85713,2.47053,-0.00264535
165.8,3.93007,2.47141,-0.00265597
168.1,4.00195,2.48541,-0.00396148
170.4,4.07416,2.50252,-0.00330188
172.7,4.1459,2.52096,-0.00330154
175,4.21713,2.53144,-0.00461689
177.3,4.2891,2.55522,-0.00594409
179.6,4.36032,2.57489,-0.00710496
181.9,4.43106,2.59928,-0.00727984
184.2,4.50221,2.61933,-0.00724768
186.5,4.57275,2.65469,-0.00879011
188.8,4.64311,2.67102,-0.00878244
191.1,4.71323,2.70825,-0.0101001
193.4,4.78365,2.7293,-0.0114202
195.7,4.85338,2.75899,-0.01142
198,4.92336,2.79633,-0.0114186
200.3,4.99319,2.82469,-0.0127403
202.6,5.06233,2.86343,-0.01274
204.9,5.13175,2.888,-0.012739
207.2,5.20124,2.91827,-0.0139699
209.5,5.27063,2.96043,-0.0127399
211.8,5.33967,2.98072,-0.0141117
214.1,5.40897,3.01783,-0.0154317
216.4,5.47809,3.05052,-0.0166453
218.7,5.54746,3.08248,-0.0180622
221,5.61633,3.11255,-0.0180115
223.3,5.68491,3.14017,-0.0193279
225.6,5.75388,3.17427,-0.0193018
227.9,5.82255,3.18283,-0.0206411
230.2,5.88991,3.20201,-0.0219134
232.5,5.95912,3.23431,-0.0234065
234.8,6.02828,3.25598,-0.0249462
237.1,6.09698,3.27002,-0.0261562
239.4,6.16523,3.29798,-0.0287522
241.7,6.23351,3.31354,-0.0286648
244,6.30218,3.32584,-0.0299675
246.3,6.37023,3.35589,-0.0325823
248.6,6.43853,3.371,-0.0340344
250.9,6.5064,3.39569,-0.0347898
253.2,6.57481,3.4128,-0.0366814
255.5,6.64305,3.43595,-0.0387111
257.8,6.71098,3.4559,-0.0418052
260.1,6.77906,3.49076,-0.0426961
262.4,6.84731,3.51009,-0.0469954
264.7,6.91551,3.53686,-0.051879
267,6.9833,3.56436,-0.055122
269.3,7.05166,3.58614,-0.0568918
271.6,7.11981,3.60547,-0.0622224
273.9,7.18757,3.61989,-0.067377
276.2,7.25563,3.62405,-0.0726687
278.5,7.32339,3.61993,-0.0765993
280.8,7.39134,3.60434,-0.0818227
283.1,7.45919,3.57541,-0.0872799
285.4,7.52746,3.55579,-0.0945468
287.7,7.59472,3.51111,-0.101471
290,7.66318,3.47173,-0.108604
292.3,7.73081,3.44532,-0.115156
294.6,7.79902,3.38664,-0.122313
296.9,7.86686,3.33064,-0.132679
299.2,7.9343,3.25914,-0.143626
301.5,8.00248,3.20365,-0.15416
303.8,8.07053,3.12077,-0.163448
306.1,8.13834,3.02614,-0.177161
308.4,8.20632,2.9039,-0.191004
310.7,8.27368,2.69742,-0.202208
313,8.34078,2.42508,-0.224642
315.3,8.40857,2.21423,-0.236178
317.6,8.47633,2.11181,-0.266823
319.9,8.54464,2.10244,-0.286509
322.2,8.61318,2.18731,-0.306189
324.5,8.68233,2.32795,-0.326734
326.8,8.75061,2.44797,-0.343767
329.1,8.81924,2.55852,-0.357481
331.4,8.88824,2.6392,-0.370356
333.7,8.9569,2.72086,-0.382561
336,9.02592,2.77303,-0.395385
338.3,9.09435,2.82384,-0.404484
340.6,9.1635,2.86602,-0.414677
342.9,9.23203,2.90494,-0.426143
345.2,9.30113,2.93776,-0.436264
347.5,9.37007,2.9786,-0.449576
349.8,9.43948,3.00582,-0.458443
352.1,9.50807,3.02822,-0.462975
354.4,9.57764,3.04297,-0.480902
356.7,9.64608,3.05653,-0.49452
359,9.7156,3.06512,-0.499018
361.3,9.78491,3.06576,-0.514635
363.6,9.85395,3.05861,-0.524628
365.9,9.92322,3.05851,-0.534757
368.2,9.99227,3.0441,-0.547262
370.5,10.0619,3.02567,-0.558073
372.8,10.131,3.01028,-0.568081
375.1,10.201,3.00564,-0.578997
377.4,10.2704,3.01417,-0.590663
379.7,10.3401,3.00257,-0.599776
382,10.4097,3.0077,-0.612462
384.3,10.4795,3.00457,-0.622179
386.6,10.5485,3.00515,-0.632179
388.9,10.6191,3.00574,-0.643668
391.2,10.6892,3.01167,-0.657754
393.5,10.7592,3.02718,-0.671396
395.8,10.8295,3.03982,-0.684411
398.1,10.8996,3.05947,-0.698222
400.4,10.9697,3.09467,-0.711263
402.7,11.0399,3.11073,-0.72729
405,11.1101,3.13829,-0.741773
407.3,11.1808,3.1527,-0.757941
409.6,11.2513,3.17814,-0.775077
411.9,11.3219,3.21041,-0.793425
414.2,11.3925,3.21876,-0.811694
416.5,11.4633,3.23469,-0.828885
418.8,11.5333,3.22921,-0.849083
421.1,11.6044,3.21734,-0.872976
423.4,11.6753,3.19645,-0.894031
425.7,11.7459,3.16077,-0.914865
428,11.8167,3.13141,-0.935517
430.3,11.8868,3.07434,-0.95852
432.6,11.9581,3.02366,-0.981123
434.9,12.0287,2.9413,-1.00361
437.2,12.0991,2.85892,-1.02592
439.5,12.1706,2.755,-1.04767
441.8,12.2414,2.65661,-1.06977
444.1,12.3121,2.54477,-1.08778
446.4,12.3832,2.44653,-1.10693
448.7,12.4539,2.32006,-1.12508
451,12.5251,2.19538,-1.14218
453.3,12.5964,2.09082,-1.15694
455.6,12.6675,1.97813,-1.17214
457.9,12.7388,1.87286,-1.18412
460.2,12.8098,1.79658,-1.19623
462.5,12.8815,1.70444,-1.20686
464.8,12.9529,1.61559,-1.21745
467.1,13.0244,1.5418,-1.22656
469.4,13.0962,1.47429,-1.23382
471.7,13.1678,1.4026,-1.24142
474,13.2396,1.34736,-1.24883
476.3,13.3114,1.26101,-1.25628
478.6,13.3832,1.22844,-1.26127
480.9,13.4553,1.18652,-1.26679
483.2,13.5274,1.16109,-1.27278
485.5,13.5994,1.13286,-1.27723
487.8,13.6717,1.11846,-1.28119
490.1,13.744,1.09927,-1.28435
492.4,13.8164,1.07414,-1.28765
494.7,13.8886,1.0564,-1.29248
497,13.9608,1.04587,-1.29667
499.3,14.0334,1.01525,-1.29986
501.6,14.1059,0.987764,-1.30209
503.9,14.1783,0.972599,-1.3066
506.2,14.2509,0.947389,-1.3096
508.5,14.3235,0.926789,-1.31279
510.8,14.3964,0.919665,-1.3148
513.1,14.469,0.899467,-1.31745
515.4,14.5417,0.887756,-1.32004
517.7,14.6149,0.879049,-1.32133
520,14.6872,0.868624,-1.32439
522.3,14.7603,0.852389,-1.3275
524.6,14.833,0.838641,-1.32953
526.9,14.9067,0.814493,-1.33162
529.2,14.9795,0.806636,-1.33421
531.5,15.0523,0.786315,-1.33618
533.8,15.1256,0.775477,-1.3381
536.1,15.1989,0.74792,-1.33973
538.4,15.2714,0.727671,-1.34245
540.7,15.3454,0.704725,-1.34503
543,15.4186,0.693821,-1.34507
545.3,15.4918,0.672441,-1.34683
547.6,15.5651,0.651382,-1.34874
549.9,15.6387,0.611415,-1.35008
552.2,15.7123,0.581813,-1.35159
554.5,15.7856,0.559612,-1.35495
556.8,15.8593,0.537684,-1.35522
559.1,15.9327,0.520724,-1.35661
561.4,16.0068,0.510417,-1.35914
563.7,16.0803,0.51127,-1.36026
566,16.1542,0.51194,-1.36028
568.3,16.2279,0.489779,-1.36061
570.6,16.3016,0.482292,-1.36389
572.9,16.3755,0.464253,-1.36608
575.2,16.449,0.463814,-1.36968
577.5,16.5232,0.450508,-1.37009
579.8,16.5979,0.451074,-1.37256
582.1,16.6718,0.450017,-1.37284
584.4,16.7462,0.445306,-1.37416
586.7,16.8202,0.441992,-1.37543
589,16.8946,0.425969,-1.37713
591.3,16.969,0.424656,-1.37876
593.6,17.0431,0.402573,-1.38008
595.9,17.1176,0.390377,-1.38131
598.2,17.1917,0.374054,-1.38273
600.5,17.2662,0.353268,-1.3855
602.8,17.3402,0.34463,-1.386
605.1,17.415,0.320318,-1.38601
607.4,17.4894,0.323508,-1.38758
609.7,17.5641,0.311848,-1.39013
612,17.6384,0.27352,-1.39152
614.3,17.7127,0.275776,-1.39378
616.6,17.7872,0.259473,-1.39369
618.9,17.8617,0.243204,-1.39368
621.2,17.9355,0.246185,-1.39302
623.5,18.0108,0.244225,-1.39435
625.8,18.0854,0.239311,-1.39532
628.1,18.1598,0.234614,-1.39679
630.4,18.2345,0.225541,-1.39885
632.7,18.3091,0.217946,-1.39971
635,18.3832,0.199332,-1.39962
637.3,18.4585,0.198027,-1.39998
639.6,18.5332,0.183909,-1.40229
641.9,18.6078,0.1617,-1.40093
644.2,18.6825,0.141241,-1.40127
646.5,18.7569,0.131781,-1.40122
648.8,18.832,0.154595,-1.40259
651.1,18.9065,0.123149,-1.40259
653.4,18.9811,0.106356,-1.40391
655.7,19.056,0.0856822,-1.4039
658,19.1308,0.0766795,-1.40244
660.3,19.2055,0.0578949,-1.40356
662.6,19.2805,0.0520654,-1.40621
664.9,19.3552,0.0323266,-1.40754
667.2,19.43,0.0164217,-1.40901
669.5,19.5043,0.00321819,-1.40903
671.8,19.5796,-0.0108027,-1.40895
674.1,19.654,-0.0271763,-1.40895
676.4,19.7289,-0.0532273,-1.41072
678.7,19.804,-0.0683709,-1.40833
681,19.8789,-0.0972135,-1.40641
683.3,19.9537,-0.10435,-1.40511
685.6,20.0288,-0.12336,-1.40561
687.9,20.1035,-0.153546,-1.40775
690.2,20.1787,-0.164096,-1.40775
692.5,20.2536,-0.189968,-1.40907
694.8,20.3287,-0.202373,-1.41356
697.1,20.4042,-0.228019,-1.4123
699.4,20.4791,-0.249413,-1.41242
701.7,20.5545,-0.269799,-1.41236
704,20.6291,-0.279281,-1.41236
706.3,20.7048,-0.300187,-1.41164
708.6,20.78,-0.320345,-1.4117
710.9,20.8556,-0.331428,-1.41233
713.2,20.9309,-0.337849,-1.41367
715.5,21.0063,-0.353357,-1.41367
717.8,21.0816,-0.35392,-1.41367
720.1,21.1573,-0.374153,-1.41348
722.4,21.2326,-0.378102,-1.41334
724.7,21.3085,-0.404736,-1.41495
727,21.3836,-0.405762,-1.41628
729.3,21.4595,-0.409986,-1.4163
731.6,21.5356,-0.412278,-1.4163
733.9,21.6109,-0.411101,-1.41501
736.2,21.6867,-0.415735,-1.41632
738.5,21.7627,-0.417215,-1.41764
740,21.812,-0.427109,-1.41764