File: 01_Data/Fiber_Reinforced_Helmet_Shell/STA/N2/30K_min/Fiber_Reinforced_Helmet_Shell_STA_N2_30KData_250430_R3.csv
Temp./C,Time/min,DSC/(mW/mg),Mass loss/mg
60.0,0.0,0.813811,0.00472514
62.3,0.132617,0.925373,0.00465452
64.6,0.256502,1.02693,0.0043496
66.9,0.371583,1.10517,0.00523426
69.2,0.481757,1.18545,0.00503848
71.5,0.587329,1.26512,0.00465895
73.8,0.689439,1.31607,0.00199679
76.1,0.788269,1.36536,0.00267747
78.4,0.885093,1.41079,0.00168321
80.7,0.980102,1.43238,0.00153889
83,1.07286,1.46094,0.000582201
85.3,1.1646,1.48444,0.00105694
87.6,1.25372,1.51706,0.00179269
89.9,1.34196,1.54554,0.00220234
92.2,1.42975,1.55907,-0.00280081
94.5,1.51578,1.58791,-0.00161201
96.8,1.60077,1.62136,-0.00111435
99.1,1.6852,1.66317,0.000402372
101.4,1.76914,1.69038,0.00796634
103.7,1.85169,1.71097,0.0041217
106,1.93436,1.73174,0.00104272
108.3,2.01665,1.75141,-0.000482673
110.6,2.09785,1.78238,-0.000623492
112.9,2.17913,1.78979,0.000118971
115.2,2.25931,1.80656,0.00204183
117.5,2.33958,1.81082,7.22468e-06
119.8,2.41879,1.82418,-0.000663883
122.1,2.49827,1.84008,-0.00186212
124.4,2.57715,1.85209,-0.00318556
126.7,2.65555,1.86822,-0.00317186
129,2.73337,1.88084,-0.00483245
131.3,2.80854,1.89585,-0.0042208
133.6,2.88586,1.90016,0.00089334
135.9,2.96242,1.90487,-0.00565327
138.2,3.03831,1.9045,-0.00625109
140.5,3.11295,1.90531,-0.00686151
142.8,3.18879,1.93103,-0.00610825
145.1,3.26326,1.93026,-0.00658362
147.4,3.33724,1.93296,-0.00790032
149.7,3.41171,1.94083,-0.00886229
152,3.48566,1.95048,-0.00921974
154.3,3.55869,1.95589,-0.00988664
156.6,3.63123,1.9639,-0.008233
158.9,3.70491,1.95384,-0.00954897
161.2,3.77732,1.93265,-0.0108061
163.5,3.84962,1.93697,-0.0108221
165.8,3.92183,1.9377,-0.0121795
168.1,3.99403,1.95163,-0.0135024
170.4,4.06588,1.95779,-0.0135
172.7,4.13732,1.96081,-0.0131464
175,4.20903,1.96237,-0.0138298
177.3,4.28035,1.98477,-0.0151669
179.6,4.35161,1.9977,-0.0165348
181.9,4.42257,2.0263,-0.0151499
184.2,4.49301,2.04091,-0.0156723
186.5,4.56346,2.05712,-0.017784
188.8,4.63402,2.08799,-0.0169499
191.1,4.70406,2.11247,-0.0183773
193.4,4.77381,2.13496,-0.0191
195.7,4.8438,2.15717,-0.0190998
198,4.91312,2.17919,-0.0204695
200.3,4.98259,2.20536,-0.0217434
202.6,5.0523,2.22016,-0.0204156
204.9,5.12167,2.24696,-0.0230691
207.2,5.1907,2.28832,-0.0243695
209.5,5.26033,2.31829,-0.024333
211.8,5.32939,2.34045,-0.0256972
214.1,5.39845,2.37666,-0.0256856
216.4,5.46745,2.41109,-0.0270086
218.7,5.5361,2.43194,-0.0290044
221,5.60453,2.47371,-0.0303004
223.3,5.67369,2.4976,-0.0316114
225.6,5.74239,2.51456,-0.03229
227.9,5.81124,2.53459,-0.0328838
230.2,5.87984,2.5534,-0.0315112
232.5,5.94809,2.57573,-0.0301376
234.8,6.01664,2.6002,-0.0314971
237.1,6.08496,2.62195,-0.0341242
239.4,6.15313,2.62839,-0.0356148
241.7,6.2218,2.63484,-0.0380944
244,6.28986,2.65163,-0.0394097
246.3,6.35795,2.66822,-0.0406805
248.6,6.42613,2.68359,-0.043298
250.9,6.49478,2.69254,-0.0447712
253.2,6.56278,2.71096,-0.0475489
255.5,6.63083,2.73206,-0.0503851
257.8,6.69896,2.73968,-0.0524057
260.1,6.76697,2.76506,-0.0546749
262.4,6.83498,2.78666,-0.0584231
264.7,6.90325,2.80826,-0.0599679
267,6.97047,2.82139,-0.063817
269.3,7.03924,2.85037,-0.069385
271.6,7.10722,2.86346,-0.0738445
273.9,7.17514,2.86607,-0.0775086
276.2,7.24309,2.86904,-0.0834016
278.5,7.31099,2.85624,-0.0886748
280.8,7.3789,2.83855,-0.0945996
283.1,7.44706,2.8183,-0.100243
285.4,7.515,2.78505,-0.105641
287.7,7.58236,2.745,-0.111988
290,7.65008,2.69622,-0.119043
292.3,7.7179,2.65865,-0.125671
294.6,7.78609,2.61374,-0.134404
296.9,7.85436,2.55357,-0.144723
299.2,7.92227,2.49892,-0.15359
301.5,7.99031,2.4338,-0.165288
303.8,8.05814,2.36162,-0.174674
306.1,8.12601,2.27075,-0.186861
308.4,8.1934,2.13179,-0.199992
310.7,8.26097,1.94011,-0.216541
313,8.32851,1.682,-0.233791
315.3,8.39587,1.46158,-0.253093
317.6,8.46349,1.35829,-0.274463
319.9,8.53203,1.36139,-0.295414
322.2,8.60061,1.4572,-0.316237
324.5,8.6693,1.58795,-0.336017
326.8,8.73815,1.71312,-0.351811
329.1,8.80693,1.81592,-0.366798
331.4,8.87563,1.89674,-0.378759
333.7,8.94458,1.96752,-0.388593
336,9.01278,2.02724,-0.402729
338.3,9.08209,2.0804,-0.410965
340.6,9.15113,2.11076,-0.423356
342.9,9.21982,2.14807,-0.436731
345.2,9.28837,2.18743,-0.448528
347.5,9.35745,2.2107,-0.459981
349.8,9.42639,2.23114,-0.470333
352.1,9.49541,2.24201,-0.482675
354.4,9.56444,2.25635,-0.494333
356.7,9.63359,2.26369,-0.502635
359,9.70263,2.26377,-0.51277
361.3,9.77206,2.25365,-0.521659
363.6,9.84105,2.25137,-0.533679
365.9,9.91021,2.2466,-0.544826
368.2,9.97969,2.22769,-0.554343
370.5,10.0488,2.21905,-0.565998
372.8,10.1183,2.21289,-0.575744
375.1,10.1876,2.20577,-0.586262
377.4,10.2571,2.19212,-0.598839
379.7,10.3267,2.19643,-0.610262
382,10.3966,2.19059,-0.621805
384.3,10.4663,2.19049,-0.635015
386.6,10.5359,2.19795,-0.64578
388.9,10.606,2.21575,-0.652623
391.2,10.6761,2.22728,-0.664727
393.5,10.7463,2.2372,-0.679497
395.8,10.8162,2.26039,-0.6925
398.1,10.8864,2.28155,-0.707621
400.4,10.9569,2.30918,-0.722633
402.7,11.027,2.3371,-0.738531
405,11.0972,2.36916,-0.753543
407.3,11.1677,2.39656,-0.76902
409.6,11.2384,2.42661,-0.78594
411.9,11.3087,2.45273,-0.803256
414.2,11.3795,2.48264,-0.820716
416.5,11.4504,2.49328,-0.841651
418.8,11.5209,2.50919,-0.861794
421.1,11.592,2.51256,-0.883225
423.4,11.6626,2.50866,-0.902836
425.7,11.7334,2.4931,-0.923934
428,11.8042,2.45858,-0.948377
430.3,11.8748,2.41587,-0.971039
432.6,11.9458,2.36276,-0.992201
434.9,12.0165,2.28757,-1.01557
437.2,12.0876,2.21043,-1.03863
439.5,12.1584,2.11499,-1.06027
441.8,12.229,2.01305,-1.07987
444.1,12.3002,1.90312,-1.09873
446.4,12.3713,1.79709,-1.11723
448.7,12.4415,1.69411,-1.13587
451,12.5136,1.57658,-1.15401
453.3,12.5844,1.47316,-1.16805
455.6,12.6553,1.36883,-1.183
457.9,12.7275,1.2684,-1.19741
460.2,12.799,1.17802,-1.20757
462.5,12.8701,1.08533,-1.21636
464.8,12.942,1.02068,-1.22701
467.1,13.0137,0.941856,-1.2335
469.4,13.0855,0.883455,-1.24203
471.7,13.1576,0.82821,-1.25616
474,13.2293,0.774938,-1.26159
476.3,13.3015,0.738246,-1.26903
478.6,13.3739,0.69512,-1.27459
480.9,13.4459,0.665145,-1.27853
483.2,13.5183,0.636569,-1.28312
485.5,13.5905,0.601775,-1.28712
487.8,13.6626,0.584486,-1.28908
490.1,13.735,0.569044,-1.29366
492.4,13.8076,0.544148,-1.29778
494.7,13.88,0.526078,-1.30195
497,13.9525,0.50811,-1.30719
499.3,14.0251,0.495695,-1.31179
501.6,14.0977,0.475226,-1.31379
503.9,14.1705,0.463104,-1.31671
506.2,14.2433,0.451078,-1.31808
508.5,14.3157,0.426546,-1.32312
510.8,14.3882,0.409901,-1.32573
513.1,14.4611,0.397826,-1.32816
515.4,14.534,0.380493,-1.32985
517.7,14.6067,0.37142,-1.33222
520,14.6795,0.364549,-1.33404
522.3,14.7525,0.355344,-1.33584
524.6,14.8256,0.34426,-1.3384
526.9,14.8987,0.34076,-1.34122
529.2,14.9718,0.327937,-1.34292
531.5,15.045,0.322838,-1.34544
533.8,15.1183,0.314021,-1.34835
536.1,15.1913,0.303631,-1.34891
538.4,15.2648,0.299921,-1.34892
540.7,15.3381,0.286309,-1.35118
543,15.4116,0.283579,-1.3519
545.3,15.4851,0.266355,-1.35601
547.6,15.5585,0.25389,-1.36023
549.9,15.6319,0.246288,-1.36021
552.2,15.7059,0.235632,-1.36258
554.5,15.7793,0.225743,-1.36196
556.8,15.8529,0.22557,-1.36295
559.1,15.9267,0.22387,-1.36448
561.4,16.0004,0.229405,-1.36711
563.7,16.0743,0.221666,-1.36825
566,16.1484,0.217265,-1.36965
568.3,16.2221,0.218819,-1.3724
570.6,16.2961,0.221448,-1.37527
572.9,16.3704,0.214787,-1.37523
575.2,16.444,0.223958,-1.37656
577.5,16.5183,0.220624,-1.37753
579.8,16.5923,0.218108,-1.3792
582.1,16.6666,0.209426,-1.38093
584.4,16.7407,0.201209,-1.38234
586.7,16.8147,0.199313,-1.38587
589,16.8889,0.202502,-1.38771
591.3,16.9633,0.203889,-1.38897
593.6,17.0377,0.194227,-1.39079
595.9,17.1119,0.191391,-1.39292
598.2,17.1864,0.197581,-1.3915
600.5,17.2604,0.191371,-1.39368
602.8,17.335,0.183776,-1.39576
605.1,17.4094,0.1777,-1.39567
607.4,17.484,0.174974,-1.39699
609.7,17.5576,0.175511,-1.39727
612,17.633,0.174718,-1.39961
614.3,17.7075,0.171739,-1.4005
616.6,17.7817,0.164438,-1.40225
618.9,17.8564,0.16344,-1.40225
621.2,17.9309,0.162113,-1.40369
623.5,18.0059,0.149674,-1.40532
625.8,18.0802,0.144834,-1.40763
628.1,18.1551,0.150236,-1.40763
630.4,18.2298,0.144435,-1.40763
632.7,18.3043,0.14343,-1.40768
635,18.379,0.140204,-1.40764
637.3,18.454,0.136422,-1.409
639.6,18.5283,0.129377,-1.40797
641.9,18.6034,0.127456,-1.41027
644.2,18.6777,0.125626,-1.41029
646.5,18.7521,0.115286,-1.41157
648.8,18.8278,0.120529,-1.4129
651.1,18.9026,0.124996,-1.4129
653.4,18.9773,0.113051,-1.41419
655.7,19.0519,0.10758,-1.41422
658,19.1271,0.104612,-1.41553
660.3,19.202,0.0927562,-1.41483
662.6,19.2768,0.0752491,-1.41534
664.9,19.3523,0.0738422,-1.41501
667.2,19.4267,0.0591467,-1.41554
669.5,19.5017,0.0415751,-1.41686
671.8,19.5763,0.0270646,-1.41784
674.1,19.6518,0.00522631,-1.41818
676.4,19.7266,-0.00752756,-1.41817
678.7,19.8014,-0.0274507,-1.41813
681,19.8767,-0.0313959,-1.41876
683.3,19.9516,-0.0528449,-1.41883
685.6,20.0269,-0.0683112,-1.42015
687.9,20.1017,-0.0860858,-1.42015
690.2,20.1769,-0.0953336,-1.42213
692.5,20.2518,-0.113717,-1.42213
694.8,20.3269,-0.135601,-1.42219
697.1,20.4023,-0.159678,-1.42212
699.4,20.4775,-0.17673,-1.4222
701.7,20.5526,-0.204041,-1.42279
704,20.6279,-0.219959,-1.42304
706.3,20.7034,-0.242459,-1.42221
708.6,20.7787,-0.256052,-1.42081
710.9,20.8543,-0.264411,-1.42077
713.2,20.9295,-0.28269,-1.4208
715.5,21.0051,-0.30622,-1.4221
717.8,21.0806,-0.323142,-1.42477
720.1,21.156,-0.344404,-1.42223
722.4,21.2313,-0.346058,-1.42211
724.7,21.3073,-0.356655,-1.42485
727,21.383,-0.369315,-1.42345
729.3,21.4585,-0.387687,-1.42476
731.6,21.5343,-0.388963,-1.42476
733.9,21.6101,-0.402419,-1.42468
736.2,21.6855,-0.410992,-1.42606
738.5,21.7616,-0.418779,-1.42689
740,21.8108,-0.418976,-1.42673