File: 01_Data/Helmet_Brim_Edging/STA/N2/30K_min/Helmet_Brim_Edging_STA_N2_30KData_250522_R2.csv
Temp./C,Time/min,DSC/(mW/mg),Mass loss/mg
40.0,0.0,1.41307,-0.0104102
42.6,0.159381,1.67128,-0.0120797
45.2,0.303777,1.90504,-0.00980527
47.8,0.438027,2.09009,-0.0141963
50.4,0.564704,2.27892,-0.00771617
53,0.685364,2.43144,-0.0179109
55.6,0.802513,2.56248,-0.0144182
58.2,0.916323,2.69084,-0.0142737
60.8,1.0259,2.80338,-0.0151002
63.4,1.13253,2.9218,-0.0166813
66,1.23933,3.03383,-0.0160559
68.6,1.34356,3.13438,-0.0158047
71.2,1.4454,3.22793,-0.0155867
73.8,1.54708,3.30955,-0.016241
76.4,1.64695,3.3605,-0.0175052
79,1.74619,3.43232,-0.0162946
81.6,1.84403,3.50237,-0.0150772
84.2,1.94057,3.57093,-0.0162637
86.8,2.03601,3.65156,-0.0161465
89.4,2.13097,3.71404,-0.0187776
92,2.22441,3.784,-0.0188358
94.6,2.31673,3.8526,-0.0174267
97.2,2.40893,3.92794,-0.0172742
99.8,2.50009,3.99554,-0.0159776
102.4,2.59036,4.05151,-0.0158298
105,2.68006,4.12507,-0.0179771
107.6,2.76954,4.20779,-0.0160666
110.2,2.85881,4.28756,-0.0186217
112.8,2.9472,4.37199,-0.0186488
115.4,3.03589,4.45321,-0.0175371
118,3.12338,4.51428,-0.01735
120.6,3.21023,4.5526,-0.0174112
123.2,3.29745,4.61935,-0.0179625
125.8,3.38367,4.70043,-0.01735
128.4,3.46961,4.79529,-0.0160252
131,3.55494,4.88154,-0.0186737
133.6,3.63985,4.99235,-0.0186771
136.2,3.72412,5.15719,-0.0173514
138.8,3.80857,5.35503,-0.0174329
141.4,3.89186,5.61046,-0.01735
144,3.97604,5.91584,-0.0173501
146.6,4.05998,6.26422,-0.0186704
149.2,4.14349,6.61304,-0.0173385
151.8,4.22565,6.8232,-0.0173397
154.4,4.30697,6.68279,-0.0163603
157,4.38648,6.28084,-0.0153624
159.6,4.46581,5.97673,-0.0166951
162.2,4.54475,5.7803,-0.01669
164.8,4.62572,5.68048,-0.0166901
167.4,4.70536,5.63056,-0.0180158
170,4.78558,5.62909,-0.0180094
172.6,4.86544,5.64542,-0.0170189
175.2,4.94523,5.66814,-0.01702
177.8,5.02466,5.69565,-0.0170275
180.4,5.10388,5.73051,-0.0158255
183,5.18317,5.78211,-0.0173495
185.6,5.26193,5.81602,-0.0176193
188.2,5.34046,5.85499,-0.0170201
190.8,5.41884,5.8986,-0.01702
193.4,5.49732,5.94425,-0.01702
196,5.57536,5.97918,-0.01702
198.6,5.65348,6.01969,-0.017021
201.2,5.73133,6.0585,-0.0160325
203.8,5.80906,6.09129,-0.0170102
206.4,5.88686,6.13755,-0.0157445
209,5.96466,6.17316,-0.0170691
211.6,6.0419,6.21446,-0.01703
214.2,6.11982,6.24643,-0.01703
216.8,6.19715,6.28264,-0.0179999
219.4,6.2742,6.31482,-0.01834
222,6.3517,6.35608,-0.0183593
224.6,6.42909,6.38741,-0.018346
227.2,6.50637,6.42843,-0.0171965
229.8,6.58335,6.4664,-0.0172397
232.4,6.66059,6.4955,-0.0185603
235,6.7375,6.53052,-0.0185779
237.6,6.81426,6.56361,-0.0224808
240.2,6.89166,6.59643,-0.0200191
242.8,6.96854,6.62271,-0.0184492
245.4,7.04559,6.64679,-0.0184538
248,7.12225,6.67536,-0.0209438
250.6,7.19921,6.70728,-0.0210323
253.2,7.27612,6.72784,-0.0212629
255.8,7.35308,6.7509,-0.02109
258.4,7.42984,6.77264,-0.0224089
261,7.5063,6.80109,-0.0237265
263.6,7.58299,6.81518,-0.0223928
266.2,7.66,6.85007,-0.0237033
268.8,7.73692,6.8741,-0.0244372
271.4,7.81363,6.90069,-0.0263491
274,7.89037,6.92518,-0.0263561
276.6,7.96718,6.94992,-0.0276713
279.2,8.04394,6.98231,-0.0289917
281.8,8.12091,7.00867,-0.0289554
284.4,8.19741,7.05114,-0.0305075
287,8.2745,7.08347,-0.033066
289.6,8.35123,7.1178,-0.0344839
292.2,8.42807,7.14373,-0.0347471
294.8,8.50519,7.19343,-0.0359511
297.4,8.58164,7.23474,-0.0399718
300,8.65895,7.28504,-0.042876
302.6,8.73605,7.33238,-0.0435743
305.2,8.81334,7.38741,-0.0462317
307.8,8.89051,7.45817,-0.0507153
310.4,8.9676,7.53697,-0.0533554
313,9.0449,7.61847,-0.0591342
315.6,9.12209,7.66037,-0.0625854
318.2,9.19894,7.51065,-0.0664511
320.8,9.27533,7.30598,-0.0727928
323.4,9.35199,7.1943,-0.0808309
326,9.42896,7.14359,-0.0880678
328.6,9.50649,7.11323,-0.0980095
331.2,9.58361,7.11756,-0.109559
333.8,9.66077,7.13344,-0.120903
336.4,9.73863,7.14285,-0.133704
339,9.8164,7.14833,-0.149449
341.6,9.89369,7.14203,-0.167095
344.2,9.97166,7.14415,-0.185485
346.8,10.0489,7.12571,-0.206019
349.4,10.1267,7.10271,-0.228161
352,10.2042,7.07587,-0.257595
354.6,10.2822,7.03466,-0.28712
357.2,10.36,6.997,-0.319013
359.8,10.4379,6.97211,-0.356576
362.4,10.5157,6.94606,-0.40141
365,10.594,6.92257,-0.45902
367.6,10.672,6.89348,-0.531227
370.2,10.7504,6.82615,-0.617218
372.8,10.8274,6.67053,-0.713659
375.4,10.9056,6.42171,-0.814451
378,10.9833,6.23975,-0.906372
380.6,11.0619,6.19242,-0.989228
383.2,11.1404,6.22301,-1.05947
385.8,11.2194,6.27578,-1.11974
388.4,11.2983,6.29854,-1.17257
391,11.3774,6.31857,-1.22184
393.6,11.4563,6.30407,-1.26738
396.2,11.5351,6.28389,-1.31209
398.8,11.6145,6.25054,-1.35304
401.4,11.6937,6.22034,-1.39428
404,11.7731,6.18869,-1.4341
406.6,11.8524,6.16109,-1.4751
409.2,11.932,6.1198,-1.51456
411.8,12.0114,6.1036,-1.55254
414.4,12.0912,6.08848,-1.59159
417,12.171,6.07369,-1.63141
419.6,12.251,6.06303,-1.6685
422.2,12.3307,6.06026,-1.70719
424.8,12.4109,6.06604,-1.74689
427.4,12.4909,6.07597,-1.78415
430,12.5706,6.10504,-1.82158
432.6,12.6517,6.12238,-1.86006
435.2,12.7322,6.15617,-1.89947
437.8,12.813,6.19412,-1.93738
440.4,12.8934,6.23892,-1.97547
443,12.9744,6.29317,-2.01675
445.6,13.0552,6.36101,-2.05778
448.2,13.1361,6.4235,-2.09888
450.8,13.217,6.49808,-2.14128
453.4,13.2981,6.56704,-2.1863
456,13.3797,6.66305,-2.23318
458.6,13.4609,6.74465,-2.28011
461.2,13.5423,6.83507,-2.33039
463.8,13.6237,6.92455,-2.38434
466.4,13.7054,6.99725,-2.44088
469,13.7866,7.05511,-2.49439
471.6,13.8683,7.07665,-2.56299
474.2,13.9496,7.06902,-2.63103
476.8,14.0304,7.01883,-2.69312
479.4,14.1121,6.91826,-2.7611
482,14.1933,6.75022,-2.83404
484.6,14.2742,6.52699,-2.90526
487.2,14.3547,6.20846,-2.97492
489.8,14.4354,5.84059,-3.0432
492.4,14.5157,5.40052,-3.10728
495,14.5961,4.92124,-3.16531
497.6,14.6762,4.41443,-3.21696
500.2,14.7568,3.90568,-3.2637
502.8,14.8369,3.40187,-3.30047
505.4,14.9175,2.95443,-3.32764
508,14.9982,2.60903,-3.34904
510.6,15.0795,2.36284,-3.36278
513.2,15.1615,2.19593,-3.37162
515.8,15.2437,2.07187,-3.37527
518.4,15.326,1.9928,-3.3786
521,15.4085,1.93988,-3.38119
523.6,15.4908,1.91454,-3.38275
526.2,15.5737,1.89396,-3.38449
528.8,15.6568,1.88593,-3.38449
531.4,15.7394,1.88459,-3.38555
534,15.8227,1.88136,-3.38505
536.6,15.9058,1.89601,-3.38163
539.2,15.9889,1.89054,-3.38304
541.8,16.0719,1.8897,-3.38296
544.4,16.155,1.90234,-3.38332
547,16.238,1.9091,-3.38428
549.6,16.3215,1.91803,-3.38428
552.2,16.405,1.9257,-3.38559
554.8,16.4881,1.9468,-3.38559
557.4,16.5715,1.94625,-3.38559
560,16.6551,1.97171,-3.38567
562.6,16.7388,2.01107,-3.38626
565.2,16.8226,2.03805,-3.38259
567.8,16.906,2.07831,-3.3907
570.4,16.9902,2.12038,-3.39064
573,17.0737,2.14516,-3.39069
575.6,17.1579,2.17727,-3.39037
578.2,17.2418,2.21993,-3.39044
580.8,17.3259,2.25184,-3.39162
583.4,17.4101,2.3043,-3.39508
586,17.4943,2.37441,-3.3946
588.6,17.5786,2.43435,-3.39632
591.2,17.6628,2.47876,-3.39873
593.8,17.7471,2.45024,-3.3987
596.4,17.8307,2.3327,-3.40287
599,17.9147,2.23248,-3.40289
601.6,17.9989,2.14601,-3.4041
604.2,18.0827,2.08145,-3.40445
606.8,18.1672,2.01875,-3.40712
609.4,18.2513,1.96279,-3.4078
612,18.3359,1.91894,-3.40663
614.6,18.4205,1.90086,-3.40766
617.2,18.5043,1.88576,-3.40702
619.8,18.5895,1.85885,-3.40831
622.4,18.6741,1.84711,-3.41029
625,18.7588,1.82032,-3.41161
627.6,18.8438,1.80563,-3.41165
630.2,18.9286,1.76987,-3.41162
632.8,19.0135,1.72847,-3.41293
635.4,19.0981,1.71011,-3.41293
638,19.1832,1.67946,-3.41372
640.6,19.2681,1.65007,-3.41359
643.2,19.3525,1.6231,-3.41357
645.8,19.4382,1.59316,-3.41426
648.4,19.5234,1.56641,-3.41558
651,19.6083,1.544,-3.41589
653.6,19.6936,1.51818,-3.41588
656.2,19.7789,1.47738,-3.41688
658.8,19.8641,1.45337,-3.41688
661.4,19.9496,1.43022,-3.41817
664,20.0346,1.40484,-3.41721
666.6,20.1203,1.3694,-3.41826
669.2,20.2053,1.32778,-3.41916
671.8,20.2909,1.30024,-3.41909
674.4,20.3761,1.2622,-3.41829
677,20.4619,1.21918,-3.41952
679.6,20.5471,1.18609,-3.41815
682.2,20.6325,1.14579,-3.41817
684.8,20.718,1.08992,-3.41952
687.4,20.8033,1.04611,-3.42084
690,20.889,1.01183,-3.42215
692.6,20.9746,0.969562,-3.42217
695.2,21.0602,0.938201,-3.42084
697.8,21.1457,0.904254,-3.42084
700.4,21.2316,0.877639,-3.42083
703,21.3172,0.859534,-3.42083
705.6,21.4029,0.841342,-3.42149
708.2,21.4888,0.821173,-3.42052
710.8,21.5746,0.802592,-3.42223
713.4,21.6605,0.782594,-3.42264
716,21.7463,0.762415,-3.42248
718.6,21.8321,0.752803,-3.42248
721.2,21.9182,0.74598,-3.42374
723.8,22.0042,0.72724,-3.4238
726.4,22.0903,0.711044,-3.42248
729,22.1763,0.707747,-3.42183
731.6,22.2626,0.70248,-3.42246
734.2,22.3486,0.680695,-3.42248
736.8,22.4346,0.682315,-3.42248
739.4,22.5207,0.680496,-3.42248
742,22.6071,0.673638,-3.42248
744.6,22.693,0.662518,-3.42283
747.2,22.7798,0.648381,-3.42249
749.8,22.8664,0.644364,-3.42443
752.4,22.9527,0.652899,-3.42308
755,23.0393,0.677138,-3.42314
757.6,23.1257,0.712607,-3.42446
760.2,23.2125,0.753304,-3.42577
762.8,23.299,0.792855,-3.42579
765.4,23.3855,0.811029,-3.4271
768,23.4724,0.836047,-3.42709
770.6,23.559,0.836546,-3.42895
773.2,23.6456,0.840431,-3.43017
775.8,23.732,0.856475,-3.43138
778.4,23.8187,0.868165,-3.43395
781,23.9052,0.862158,-3.4345
783.6,23.9918,0.872286,-3.43621
786.2,24.0788,0.883342,-3.43757
788.8,24.1655,0.882649,-3.43791
790,24.2053,0.885828,-3.43881