File: 01_Data/Helmet_Brim_Edging/STA/N2/30K_min/Helmet_Brim_Edging_STA_N2_30KData_240228_R1.csv
Temp./C,Time/min,DSC/(mW/mg),Mass loss/mg
60.0,0.0,1.8425,-0.00249983
62,0.100105,2.06735,-0.00396091
64,0.194668,2.27327,-0.00490008
66,0.283854,2.45135,-0.00525834
68,0.368077,2.61126,-0.00427361
70,0.450003,2.75648,-0.0037212
72,0.528788,2.87357,-0.00359315
74,0.60634,2.97426,-0.00602221
76,0.682535,3.07108,-0.00480718
78,0.756657,3.16252,-0.00329881
80,0.830116,3.23635,-0.00392773
82,0.902463,3.31727,-0.0038581
84,0.9734,3.38339,-0.00211209
86,1.04405,3.44102,-0.00342508
88,1.11385,3.50777,-0.0024431
90,1.18279,3.55185,-0.000851181
92,1.25102,3.61468,-0.000875186
94,1.3194,3.65196,-0.000523085
96,1.3866,3.69,-1.01176e-05
98,1.45444,3.72882,-0.000975455
100,1.52139,3.7651,-0.00084004
102,1.58798,3.8062,0.000849218
104,1.65476,3.84037,0.00090769
106,1.72136,3.87075,0.000888929
108,1.78749,3.90552,0.00220982
110,1.8541,3.93054,0.00302587
112,1.92017,3.95857,0.00383415
114,1.986,3.99377,0.00506301
116,2.05209,4.03188,0.00594767
118,2.11801,4.06611,0.0063003
120,2.18425,4.11149,0.00625798
122,2.24947,4.13979,0.0075791
124,2.31541,4.17051,0.00887565
126,2.38104,4.21485,0.00889492
128,2.44629,4.25994,0.00889203
130,2.51146,4.31617,0.00808888
132,2.57643,4.38359,0.00753439
134,2.64119,4.45106,0.0102092
136,2.70608,4.56125,0.01021
138,2.77099,4.68187,0.01021
140,2.83488,4.82929,0.01021
142,2.90028,5.01332,0.01021
144,2.96491,5.22563,0.0102102
146,3.02979,5.46122,0.00871741
148,3.09408,5.72513,0.00744874
150,3.15865,5.96592,0.00613873
152,3.2227,6.10915,0.00581994
154,3.28556,6.06625,0.00575381
156,3.34752,5.81418,0.00837229
158,3.4093,5.4846,0.00689877
160,3.47016,5.22026,0.00561543
162,3.53273,5.03476,0.00489413
164,3.59492,4.90637,0.00405357
166,3.65706,4.83151,0.000603139
168,3.71926,4.78501,-0.000752882
170,3.78146,4.76968,-0.00306878
172,3.84406,4.74566,-0.00654986
174,3.90618,4.75193,-0.00770071
176,3.96839,4.76405,-0.00779048
178,4.02948,4.78548,-0.0064923
180,4.09209,4.80736,-0.00483791
182,4.15381,4.81381,-0.00484232
184,4.21531,4.83309,-0.00775732
186,4.27716,4.85112,-0.00910908
188,4.33843,4.87993,-0.00911508
190,4.39943,4.8992,-0.00778671
192,4.46069,4.92268,-0.00526019
194,4.52231,4.93017,-0.00516055
196,4.58301,4.96543,-0.00516712
198,4.6441,4.9862,-0.00515024
200,4.705,5.00563,-0.00516487
202,4.76601,5.02751,-0.00673264
204,4.8272,5.03055,-0.0120499
206,4.88797,5.064,-0.0137402
208,4.94907,5.08194,-0.011855
210,5.0098,5.10494,-0.0126134
212,5.07057,5.11899,-0.0131799
214,5.13098,5.13734,-0.0126941
216,5.19237,5.16477,-0.01252
218,5.25287,5.17863,-0.0125648
220,5.31357,5.20071,-0.0138244
222,5.37427,5.21242,-0.0118495
224,5.43473,5.23406,-0.00967078
226,5.49507,5.25361,-0.0092956
228,5.55583,5.2661,-0.0119779
230,5.61678,5.27776,-0.0164962
232,5.67677,5.29307,-0.0208017
234,5.73756,5.30252,-0.0208663
236,5.79759,5.32395,-0.02086
238,5.85818,5.33503,-0.0208342
240,5.91853,5.3504,-0.0195399
242,5.97877,5.3608,-0.0188705
244,6.03953,5.38005,-0.0180824
246,6.09939,5.39125,-0.0166844
248,6.16009,5.39763,-0.0194889
250,6.22033,5.41203,-0.0224046
252,6.28062,5.41922,-0.02395
254,6.34103,5.42919,-0.0234903
256,6.40062,5.43745,-0.0246896
258,6.46126,5.44375,-0.0234885
260,6.52195,5.4519,-0.0248087
262,6.58216,5.45757,-0.0250475
264,6.64233,5.46097,-0.0274507
266,6.70236,5.46845,-0.0274558
268,6.76276,5.47406,-0.0277895
270,6.82313,5.48164,-0.0274284
272,6.88305,5.48024,-0.0288694
274,6.94376,5.48818,-0.0296115
276,7.00412,5.49432,-0.0306215
278,7.06427,5.49625,-0.0311324
280,7.1243,5.50098,-0.0343169
282,7.1846,5.51304,-0.0378809
284,7.24488,5.5235,-0.0410659
286,7.30568,5.52138,-0.0428874
288,7.3661,5.52621,-0.044609
290,7.42647,5.53267,-0.0460326
292,7.48737,5.54908,-0.0477639
294,7.54767,5.56055,-0.0506336
296,7.60811,5.5633,-0.0538183
298,7.66882,5.57354,-0.0568745
300,7.72964,5.59146,-0.0620962
302,7.79025,5.61582,-0.0669904
304,7.85081,5.62961,-0.071608
306,7.91167,5.64924,-0.0760554
308,7.97234,5.67861,-0.0803855
310,8.03306,5.70905,-0.0845822
312,8.09404,5.74593,-0.0885682
314,8.15465,5.79224,-0.0908375
316,8.21547,5.80901,-0.0943839
318,8.27619,5.74684,-0.10322
320,8.33595,5.53106,-0.109224
322,8.39654,5.39553,-0.114905
324,8.45685,5.31067,-0.120574
326,8.51739,5.25148,-0.130517
328,8.57829,5.20357,-0.138604
330,8.63886,5.18371,-0.144769
332,8.69976,5.17767,-0.154676
334,8.76076,5.16563,-0.16285
336,8.82111,5.15892,-0.174719
338,8.88255,5.16515,-0.188112
340,8.94361,5.16474,-0.201655
342,9.00454,5.15325,-0.218296
344,9.0653,5.14521,-0.239194
346,9.12656,5.12206,-0.258088
348,9.18756,5.08376,-0.278069
350,9.24862,5.04221,-0.299124
352,9.30965,5.01277,-0.326244
354,9.37123,4.96904,-0.354223
356,9.43231,4.92523,-0.385171
358,9.49336,4.87701,-0.418589
360,9.55428,4.82538,-0.459567
362,9.6159,4.81179,-0.509059
364,9.67749,4.79249,-0.569196
366,9.73922,4.78461,-0.642
368,9.80043,4.75328,-0.718878
370,9.86172,4.628,-0.802119
372,9.92262,4.4489,-0.878465
374,9.98367,4.34405,-0.952017
376,10.0456,4.31676,-1.01224
378,10.1076,4.35073,-1.07063
380,10.1694,4.4052,-1.11727
382,10.2315,4.46725,-1.1567
384,10.2934,4.52654,-1.19387
386,10.355,4.57439,-1.22724
388,10.4173,4.60441,-1.26324
390,10.4794,4.62293,-1.296
392,10.5413,4.62996,-1.32852
394,10.6036,4.63252,-1.36001
396,10.6658,4.62731,-1.3932
398,10.7276,4.61532,-1.42264
400,10.7898,4.59774,-1.45319
402,10.8521,4.58574,-1.48167
404,10.9143,4.57797,-1.50974
406,10.9758,4.55427,-1.536
408,11.0388,4.53338,-1.56396
410,11.1004,4.51546,-1.59136
412,11.1631,4.50779,-1.61702
414,11.2257,4.49024,-1.64621
416,11.2886,4.47806,-1.67299
418,11.351,4.46086,-1.70089
420,11.4134,4.45285,-1.72719
422,11.476,4.45066,-1.75137
424,11.5385,4.44764,-1.77822
426,11.6015,4.4464,-1.80415
428,11.6645,4.45782,-1.83057
430,11.7271,4.45633,-1.85705
432,11.7901,4.47066,-1.88041
434,11.8529,4.48088,-1.90383
436,11.916,4.49249,-1.93051
438,11.9791,4.51718,-1.95803
440,12.0423,4.53261,-1.98585
442,12.1055,4.54913,-2.01544
444,12.1682,4.58302,-2.04149
446,12.2319,4.61337,-2.06919
448,12.2952,4.64275,-2.09623
450,12.3586,4.68066,-2.1239
452,12.422,4.72621,-2.15285
454,12.4855,4.78336,-2.18177
456,12.5491,4.84688,-2.21369
458,12.6129,4.897,-2.24493
460,12.6766,4.96195,-2.27921
462,12.7398,5.02915,-2.31304
464,12.804,5.08442,-2.3492
466,12.8679,5.15899,-2.38886
468,12.9312,5.2192,-2.42989
470,12.9958,5.27286,-2.47284
472,13.0593,5.30315,-2.51176
474,13.1233,5.33256,-2.55346
476,13.1874,5.34481,-2.59896
478,13.2511,5.32736,-2.64334
480,13.315,5.29404,-2.6913
482,13.379,5.22801,-2.7425
484,13.4427,5.13265,-2.79235
486,13.5065,4.99586,-2.8458
488,13.5699,4.84099,-2.89821
490,13.6335,4.63482,-2.95166
492,13.6968,4.39321,-3.00575
494,13.7597,4.1196,-3.05269
496,13.823,3.79255,-3.09992
498,13.8857,3.44455,-3.14183
500,13.9481,3.0511,-3.18177
502,14.0107,2.64003,-3.21565
504,14.0732,2.20875,-3.24447
506,14.1359,1.79457,-3.27012
508,14.1984,1.44809,-3.2915
510,14.2613,1.17326,-3.30868
512,14.3246,0.959163,-3.32225
514,14.3879,0.797221,-3.33424
516,14.4514,0.670595,-3.33948
518,14.5148,0.574695,-3.34081
520,14.579,0.509008,-3.3416
522,14.6426,0.457703,-3.34211
524,14.7066,0.441172,-3.34515
526,14.7715,0.427214,-3.34816
528,14.8356,0.425231,-3.34732
530,14.9,0.426034,-3.34816
532,14.9646,0.427408,-3.34827
534,15.0288,0.434469,-3.34948
536,15.0935,0.445125,-3.35079
538,15.1579,0.456815,-3.35113
540,15.2224,0.465538,-3.35211
542,15.2871,0.481926,-3.35211
544,15.3519,0.492097,-3.35211
546,15.4168,0.504314,-3.35081
548,15.4809,0.511912,-3.35081
550,15.5465,0.513752,-3.35182
552,15.6112,0.525321,-3.35308
554,15.6758,0.535163,-3.35442
556,15.741,0.543017,-3.35528
558,15.806,0.551951,-3.35475
560,15.8711,0.561908,-3.35344
562,15.9361,0.577455,-3.35342
564,16.0018,0.597837,-3.3531
566,16.0667,0.61346,-3.35178
568,16.1321,0.629349,-3.35353
570,16.1969,0.642666,-3.35712
572,16.2623,0.663121,-3.36035
574,16.3277,0.684197,-3.36341
576,16.3931,0.713809,-3.36572
578,16.4588,0.740738,-3.36897
580,16.5244,0.780769,-3.36879
582,16.5897,0.814874,-3.36745
584,16.6555,0.815076,-3.3667
586,16.721,0.782096,-3.36487
588,16.7861,0.698834,-3.36609
590,16.8515,0.606733,-3.36759
592,16.9167,0.504323,-3.36759
594,16.9823,0.427999,-3.36891
596,17.0473,0.354874,-3.37155
598,17.1131,0.288353,-3.37308
600,17.1787,0.231862,-3.37206
602,17.2443,0.177144,-3.3729
604,17.3102,0.126282,-3.37356
606,17.3756,0.0734079,-3.37691
608,17.4409,0.0398601,-3.37813
610,17.5072,0.00363381,-3.37944
612,17.5731,-0.0312494,-3.37944
614,17.6383,-0.0456611,-3.37826
616,17.7047,-0.0577126,-3.37703
618,17.7706,-0.0769998,-3.37845
620,17.8366,-0.093339,-3.37978
622,17.9026,-0.104204,-3.3798
624,17.9688,-0.120084,-3.37883
626,18.0348,-0.130882,-3.37595
628,18.1005,-0.138707,-3.37372
630,18.1668,-0.144757,-3.37456
632,18.2331,-0.158686,-3.37506
634,18.2992,-0.170585,-3.37613
636,18.3655,-0.178249,-3.37499
638,18.4317,-0.185549,-3.37637
640,18.4977,-0.196621,-3.37778