File: 01_Data/Corrugated_Cardboard/MCC/Corrugated_Cardboard_MCC_30K_min_231110_R1.txt
Sample ID:	C:\Users\MCC\Documents\MCC Data\ULINE_CB\ULINE_CB_MCC_N2_30K_231110_R1.txt
Sample Weight (mg):	3.94
Heating Rate (C/s):	0.5
Combustor Temp (C):	900
N2 Flow Rate (cc/min):	80
O2 Flow Rate (cc/min):	20
Calibration File:	C:\Users\MCC\Desktop\UMD MCC\MCC\Calibration Files\Coefficients\Coeff_231026_30K.txt
T Correction Coefficients:	0	1.0291	0
Time Shift (s):	8.5
*
Time (s)	Temperature (C)	N2 Flow (cc/min)	O2 Flow (cc/min)	End Flow (cc/min)	Oxygen (%)	HRR (W/g)
0.000	74.557	80.009	19.989	100.341	20.216	-0.071
7.500	75.071	80.010	19.989	100.341	20.218	-0.259
15.000	75.629	80.012	19.991	100.339	20.218	-0.242
22.500	76.240	80.014	19.993	100.346	20.220	-0.416
30.000	76.911	80.006	19.987	100.351	20.218	-0.296
37.501	77.663	80.008	19.989	100.380	20.214	0.087
45.000	78.635	80.014	19.991	100.434	20.201	1.097
52.500	79.945	80.015	19.992	100.537	20.185	2.406
60.000	81.878	80.001	19.986	100.618	20.165	3.941
67.500	84.435	80.009	19.991	100.603	20.156	4.684
75.000	87.538	80.006	19.989	100.621	20.154	4.807
82.500	91.074	80.005	19.988	100.628	20.153	4.899
90.001	94.906	80.009	19.989	100.650	20.153	4.906
97.500	99.096	80.004	19.988	100.626	20.154	4.867
105.001	103.457	80.006	19.988	100.626	20.158	4.533
112.500	108.014	80.020	19.995	100.597	20.159	4.411
120.001	112.592	80.009	19.989	100.598	20.164	4.050
127.501	117.176	80.006	19.989	100.560	20.167	3.839
135.000	121.717	80.017	19.994	100.536	20.171	3.464
142.500	126.146	80.006	19.988	100.547	20.173	3.302
150.000	130.545	80.011	19.990	100.510	20.177	3.023
157.500	134.738	80.023	19.996	100.490	20.179	2.819
165.000	138.897	80.017	19.991	100.484	20.180	2.751
172.500	142.913	80.005	19.990	100.480	20.180	2.739
180.000	146.825	80.026	19.994	100.470	20.183	2.493
187.500	150.698	80.012	19.991	100.480	20.183	2.524
195.000	154.456	80.005	19.988	100.470	20.184	2.429
202.500	158.206	80.001	19.984	100.466	20.185	2.365
210.000	161.890	80.009	19.986	100.466	20.185	2.355
217.500	165.623	80.010	19.992	100.468	20.186	2.260
225.000	169.295	80.012	19.988	100.466	20.183	2.519
232.500	173.030	80.003	19.991	100.463	20.182	2.584
240.000	176.812	80.011	19.989	100.465	20.184	2.482
247.500	180.570	80.010	19.991	100.470	20.182	2.579
255.000	184.456	80.007	19.989	100.462	20.185	2.401
262.500	188.279	80.008	19.986	100.465	20.183	2.514
270.000	192.183	80.003	19.984	100.461	20.183	2.488
277.500	196.053	80.008	19.986	100.455	20.182	2.589
285.000	199.963	80.013	19.992	100.442	20.181	2.647
292.500	203.891	80.019	19.997	100.417	20.180	2.764
300.000	207.767	80.008	19.991	100.433	20.179	2.872
307.500	211.719	80.015	19.993	100.423	20.181	2.706
315.000	215.557	80.011	19.992	100.425	20.179	2.810
322.500	219.444	80.007	19.989	100.414	20.179	2.810
330.000	223.300	79.995	19.982	100.413	20.177	3.014
337.500	227.164	80.011	19.991	100.416	20.176	3.088
345.000	230.974	80.002	19.988	100.405	20.175	3.180
352.500	234.765	80.006	19.988	100.423	20.174	3.261
360.000	238.567	80.006	19.990	100.420	20.171	3.481
367.500	242.304	80.011	19.992	100.423	20.168	3.722
375.000	246.072	80.010	19.987	100.415	20.164	4.010
382.500	249.801	80.009	19.983	100.416	20.159	4.435
390.000	253.543	80.010	19.989	100.416	20.152	4.989
397.500	257.285	80.008	19.990	100.407	20.144	5.630
405.000	261.014	80.009	19.995	100.425	20.137	6.205
412.500	264.784	80.004	19.988	100.414	20.128	6.920
420.000	268.516	80.013	19.992	100.430	20.116	7.842
427.500	272.269	80.003	19.984	100.415	20.104	8.824
435.000	276.037	79.988	19.978	100.471	20.090	9.894
442.500	279.813	80.016	19.992	100.429	20.073	11.285
450.000	283.625	79.983	19.979	100.456	20.052	12.920
457.500	287.390	80.021	19.997	100.463	20.032	14.554
465.000	291.208	80.008	19.994	100.467	20.006	16.570
472.500	294.956	79.993	19.982	100.466	19.975	19.099
480.000	298.757	80.022	19.993	100.448	19.947	21.262
487.500	302.555	80.002	19.988	100.470	19.916	23.734
495.000	306.364	80.005	19.985	100.508	19.880	26.680
502.500	310.166	80.014	19.989	100.498	19.843	29.606
510.000	313.946	80.013	19.993	100.502	19.802	32.837
517.500	317.789	80.006	19.987	100.542	19.760	36.179
525.000	321.525	80.010	19.992	100.551	19.714	39.896
532.500	325.289	80.015	19.988	100.569	19.663	43.922
540.000	329.021	80.001	19.984	100.598	19.611	48.115
547.500	332.753	79.995	19.986	100.627	19.551	52.886
555.000	336.470	80.012	19.990	100.618	19.485	58.190
562.500	340.166	80.011	19.991	100.651	19.412	63.999
570.000	343.916	80.019	19.995	100.658	19.333	70.326
577.500	347.626	80.005	19.991	100.701	19.254	76.626
585.000	351.342	80.005	19.992	100.715	19.178	82.706
592.500	355.081	80.004	19.988	100.700	19.115	87.662
600.000	358.795	80.001	19.992	100.698	19.082	90.318
607.500	362.543	80.001	19.986	100.660	19.094	89.269
615.000	366.242	80.027	20.000	100.578	19.164	83.689
622.500	370.025	80.007	19.989	100.548	19.291	73.475
630.000	373.783	80.021	19.994	100.470	19.460	60.037
637.500	377.555	79.990	19.982	100.435	19.639	45.820
645.000	381.316	80.003	19.989	100.415	19.793	33.510
652.500	385.064	80.009	19.987	100.377	19.914	23.930
660.000	388.821	80.003	19.986	100.365	19.999	17.143
667.500	392.523	80.008	19.988	100.354	20.052	12.915
675.000	396.264	80.007	19.989	100.341	20.082	10.543
682.500	399.932	80.003	19.988	100.343	20.099	9.222
690.000	403.634	80.003	19.986	100.358	20.106	8.624
697.500	407.309	80.011	19.990	100.342	20.111	8.216
705.000	410.986	80.015	19.991	100.362	20.111	8.280
712.500	414.678	79.996	19.981	100.366	20.113	8.078
720.000	418.359	80.009	19.991	100.323	20.116	7.812
727.500	422.070	80.003	19.985	100.318	20.119	7.596
735.000	425.722	79.994	19.984	100.342	20.123	7.266
742.500	429.451	79.978	19.976	100.330	20.127	6.984
750.000	433.138	80.018	19.993	100.334	20.130	6.712
757.500	436.830	80.013	19.990	100.314	20.134	6.413
765.000	440.555	80.008	19.990	100.331	20.140	5.968
772.500	444.224	80.010	19.991	100.312	20.144	5.657
780.000	447.961	80.004	19.987	100.323	20.148	5.331
787.500	451.625	80.009	19.991	100.334	20.151	5.101
795.000	455.306	80.009	19.988	100.331	20.157	4.611
802.500	458.986	80.008	19.990	100.300	20.160	4.388
810.000	462.661	80.014	19.991	100.309	20.161	4.296
817.500	466.348	80.009	19.990	100.313	20.164	4.036
825.000	470.013	80.008	19.992	100.311	20.167	3.808
832.500	473.704	80.003	19.985	100.302	20.173	3.351
840.000	477.396	80.016	19.992	100.303	20.171	3.468
847.500	481.096	80.007	19.989	100.313	20.176	3.100
855.000	484.772	80.018	19.992	100.305	20.178	2.914
862.500	488.468	80.007	19.989	100.307	20.181	2.681
870.000	492.160	80.008	19.988	100.310	20.184	2.457
877.500	495.853	80.005	19.986	100.298	20.184	2.447
885.000	499.575	80.017	19.992	100.298	20.185	2.376
892.500	503.249	80.014	19.990	100.304	20.185	2.325
900.000	506.981	80.018	19.993	100.307	20.190	1.950
907.500	510.697	80.001	19.985	100.296	20.189	2.022
915.000	514.388	80.012	19.992	100.295	20.190	1.972
922.500	518.096	80.010	19.991	100.284	20.192	1.795
930.000	521.794	80.010	19.991	100.293	20.193	1.694
937.500	525.551	80.010	19.991	100.308	20.195	1.595
945.000	529.245	80.002	19.987	100.308	20.196	1.498
952.500	532.987	80.012	19.992	100.302	20.199	1.227
960.000	536.716	80.010	19.990	100.306	20.202	1.042
967.500	540.421	80.009	19.989	100.302	20.199	1.262
975.000	544.130	80.006	19.989	100.300	20.201	1.129
982.500	547.807	80.015	19.993	100.300	20.201	1.056
990.000	551.531	80.012	19.991	100.308	20.202	1.045
997.500	555.169	80.009	19.989	100.299	20.201	1.123
1005.000	558.884	80.015	19.991	100.303	20.200	1.170
1012.500	562.557	80.010	19.990	100.299	20.202	1.035
1020.000	566.233	80.008	19.989	100.287	20.202	1.029
1027.500	569.935	80.008	19.989	100.305	20.202	0.982
1035.000	573.613	80.012	19.991	100.304	20.204	0.863
1042.500	577.333	80.017	19.994	100.298	20.204	0.857
1050.001	581.052	80.008	19.989	100.295	20.204	0.814
1057.500	584.765	80.006	19.986	100.293	20.205	0.741
1065.001	588.487	80.004	19.987	100.297	20.205	0.794
1072.500	592.199	80.008	19.989	100.304	20.204	0.863
1080.000	595.964	80.009	19.989	100.305	20.205	0.805
1087.500	599.665	80.011	19.992	100.291	20.204	0.820
1095.001	603.422	80.015	19.993	100.300	20.207	0.601
1102.500	607.110	80.007	19.989	100.301	20.209	0.451
1110.000	610.853	80.013	19.993	100.296	20.208	0.507
1117.501	614.537	80.009	19.991	100.291	20.207	0.619
1125.001	618.273	80.007	19.989	100.292	20.206	0.662
1132.500	622.016	80.007	19.989	100.299	20.207	0.582
1140.000	625.689	80.006	19.989	100.300	20.208	0.524
1147.501	629.413	80.011	19.991	100.303	20.209	0.464
1155.000	633.082	80.009	19.990	100.283	20.207	0.577
1162.500	636.778	80.012	19.990	100.260	20.208	0.521
1170.000	640.456	80.012	19.991	100.272	20.207	0.606
1177.500	644.134	80.000	19.985	100.268	20.213	0.153
1185.000	647.848	80.012	19.991	100.288	20.214	0.079
1192.501	651.494	80.014	19.992	100.266	20.213	0.106
1200.000	655.233	80.007	19.988	100.295	20.210	0.354
1207.501	658.957	80.010	19.989	100.292	20.209	0.496
1215.001	662.681	80.009	19.989	100.296	20.209	0.440
1222.500	666.399	80.008	19.988	100.277	20.210	0.410
1230.001	670.053	80.013	19.990	100.287	20.210	0.372
1237.500	673.729	80.013	19.991	100.282	20.211	0.311
1245.000	677.416	80.019	19.994	100.279	20.212	0.206
1252.500	681.132	80.008	19.989	100.275	20.215	-0.051
1260.000	684.923	80.016	19.992	100.283	20.212	0.240
1267.500	688.835	80.005	19.988	100.274	20.210	0.339
1275.000	692.789	80.012	19.991	100.278	20.211	0.258
1282.500	696.760	80.008	19.989	100.273	20.213	0.176
1290.000	700.715	80.007	19.990	100.267	20.214	0.030
1297.500	704.538	80.016	19.993	100.264	20.214	0.086
1305.001	708.367	80.009	19.989	100.274	20.214	0.022
1312.501	712.053	80.004	19.989	100.261	20.219	-0.368
1320.000	715.740	80.011	19.990	100.257	20.221	-0.479
1327.501	719.364	80.013	19.991	100.270	20.219	-0.349
1335.000	722.988	80.006	19.988	100.266	20.218	-0.227
1342.500	726.639	80.008	19.989	100.239	20.217	-0.166
1350.000	730.258	80.006	19.988	100.244	20.217	-0.173
1357.500	733.947	80.014	19.993	100.259	20.220	-0.418
1365.001	737.600	80.006	19.990	100.258	20.221	-0.465
1372.500	741.288	80.013	19.993	100.269	20.221	-0.530
1380.000	744.961	80.008	19.989	100.265	20.223	-0.643
1383.001	746.475	80.011	19.990	100.252	20.223	-0.632