File: 01_Data/Protective_Hood/STA/N2/10K_min/Protective_Hood_STA_N2_10KData_250623_R4.csv
Temp./C,Time/min,DSC/(mW/mg),Mass loss/mg
60.0,0.0,0.647903,-0.0407889
62.5,0.324756,0.713858,-0.0412517
65,0.631299,0.765499,-0.0428013
67.5,0.927867,0.828344,-0.0437075
70,1.22041,0.886945,-0.0449409
72.5,1.50371,0.939689,-0.0468666
75,1.78262,0.995815,-0.0497449
77.5,2.0563,1.04946,-0.0506511
80,2.32584,1.08576,-0.0533567
82.5,2.59252,1.12471,-0.055993
85,2.8529,1.159,-0.0577282
87.5,3.11416,1.20482,-0.0626994
90,3.36692,1.22627,-0.0634758
92.5,3.61769,1.24067,-0.0654791
95,3.87095,1.25304,-0.0679361
97.5,4.11855,1.25107,-0.0692627
100,4.3662,1.24632,-0.0719099
102.5,4.60941,1.22816,-0.0758588
105,4.85571,1.20928,-0.0758611
107.5,5.09821,1.18465,-0.0798137
110,5.33999,1.16406,-0.0810925
112.5,5.58266,1.13669,-0.0835202
115,5.82465,1.11229,-0.0834307
117.5,6.06543,1.07727,-0.0855737
120,6.30446,1.05054,-0.0864087
122.5,6.54564,1.02738,-0.0883801
125,6.78602,0.998554,-0.0883692
127.5,7.02414,0.971201,-0.0896866
130,7.26081,0.955834,-0.08969
132.5,7.50174,0.940522,-0.0896898
135,7.73978,0.92928,-0.091129
137.5,7.97809,0.924552,-0.0910061
140,8.2163,0.914648,-0.0923211
142.5,8.45241,0.89807,-0.0921531
145,8.68935,0.892204,-0.0910104
147.5,8.9229,0.891413,-0.0923302
150,9.15955,0.893181,-0.0923491
152.5,9.39715,0.901812,-0.0923301
155,9.6336,0.891316,-0.0923303
157.5,9.86818,0.899105,-0.0937239
160,10.1035,0.905681,-0.0936388
162.5,10.3401,0.912415,-0.0922833
165,10.5757,0.912998,-0.09365
167.5,10.8091,0.914972,-0.0939685
170,11.0463,0.921164,-0.0952898
172.5,11.2822,0.943829,-0.0943462
175,11.5175,0.948631,-0.095619
177.5,11.7535,0.939902,-0.0959545
180,11.9899,0.949937,-0.0949712
182.5,12.2248,0.964583,-0.0962796
185,12.4606,0.970889,-0.0976
187.5,12.6961,0.979702,-0.0970547
190,12.9297,0.996335,-0.0989188
192.5,13.1649,1.00427,-0.10023
195,13.4013,1.01448,-0.10023
197.5,13.6354,1.02361,-0.10286
200,13.8704,1.04189,-0.1039
202.5,14.1059,1.05413,-0.10605
205,14.3404,1.0658,-0.106027
207.5,14.5751,1.07942,-0.110639
210,14.812,1.11411,-0.11263
212.5,15.0469,1.13512,-0.116681
215,15.282,1.18228,-0.120684
217.5,15.5161,1.23634,-0.125814
220,15.7562,1.34805,-0.132399
222.5,15.9935,1.56237,-0.138987
225,16.2396,2.41547,-0.147637
227.5,16.4886,3.4408,-0.157905
230,16.7052,1.74037,-0.169761
232.5,16.9347,1.26898,-0.18037
235,17.168,1.1695,-0.195414
237.5,17.4035,1.15285,-0.2124
240,17.6398,1.16417,-0.230944
242.5,17.8769,1.21622,-0.255121
245,18.114,1.40691,-0.281929
247.5,18.356,1.88189,-0.317637
250,18.604,2.88656,-0.370201
252.5,18.8554,4.16351,-0.441433
255,19.1058,5.18172,-0.534535
257.5,19.3509,5.80245,-0.653264
260,19.5918,6.06305,-0.792992
262.5,19.8272,5.90246,-0.946933
265,20.0583,5.39194,-1.09689
267.5,20.286,4.60694,-1.23428
270,20.5122,3.66331,-1.35595
272.5,20.7379,2.71416,-1.45478
275,20.9641,1.87798,-1.53379
277.5,21.1927,1.21684,-1.59689
280,21.4232,0.771651,-1.64659
282.5,21.6559,0.513326,-1.67861
285,21.8914,0.394668,-1.7043
287.5,22.127,0.314525,-1.72637
290,22.3632,0.279863,-1.74104
292.5,22.6008,0.23851,-1.75793
295,22.8382,0.197524,-1.77154
297.5,23.0738,0.183287,-1.78739
300,23.3112,0.15438,-1.79905
302.5,23.5479,0.117778,-1.81184
305,23.7866,0.0834367,-1.8263
307.5,24.0246,0.0578629,-1.83853
310,24.2617,0.0455282,-1.85415
312.5,24.5012,0.0265581,-1.86423
315,24.7386,0.00946754,-1.88077
317.5,24.9767,-0.0107671,-1.89029
320,25.2149,-0.0339888,-1.9031
322.5,25.4541,-0.0464245,-1.91632
325,25.6929,-0.0705168,-1.9294
327.5,25.9318,-0.0785677,-1.94149
330,26.1705,-0.088719,-1.95577
332.5,26.4095,-0.0896298,-1.97056
335,26.6499,-0.0877788,-1.98242
337.5,26.8889,-0.0834789,-1.99448
340,27.1294,-0.079211,-2.00645
342.5,27.3694,-0.0642205,-2.01934
345,27.6103,-0.0521633,-2.02953
347.5,27.8503,-0.0399156,-2.04308
350,28.0917,-0.0140219,-2.05438
352.5,28.3316,0.00597452,-2.06494
355,28.5721,0.0320879,-2.07316
357.5,28.8151,0.0614394,-2.08228
360,29.0562,0.0871768,-2.09123
362.5,29.2984,0.10856,-2.10221
365,29.5402,0.135604,-2.11075
367.5,29.7826,0.151979,-2.11931
370,30.0246,0.17664,-2.12846
372.5,30.2658,0.185539,-2.13449
375,30.5091,0.18994,-2.13988
377.5,30.7517,0.202903,-2.14743
380,30.9939,0.219321,-2.15306
382.5,31.2362,0.223915,-2.16009
385,31.4791,0.22753,-2.16825
387.5,31.722,0.242581,-2.17279
390,31.9653,0.241042,-2.17899
392.5,32.2076,0.237364,-2.18455
395,32.4503,0.230381,-2.1896
397.5,32.6944,0.227694,-2.19499
400,32.9364,0.215997,-2.20007
402.5,33.1796,0.216166,-2.20725
405,33.4225,0.227972,-2.21113
407.5,33.6637,0.214961,-2.21777
410,33.9106,0.228132,-2.22057
412.5,34.1542,0.232079,-2.22585
415,34.3976,0.241305,-2.23179
417.5,34.6406,0.247583,-2.23736
420,34.8853,0.259571,-2.24303
422.5,35.1286,0.26896,-2.24568
425,35.3733,0.273739,-2.25298
427.5,35.6156,0.286595,-2.25823
430,35.8615,0.285243,-2.26204
432.5,36.1062,0.299371,-2.26723
435,36.3502,0.320911,-2.27237
437.5,36.5945,0.337944,-2.27731
440,36.8397,0.349422,-2.28297
442.5,37.0843,0.362743,-2.2871
445,37.3286,0.371164,-2.29249
447.5,37.5744,0.38563,-2.29801
450,37.8193,0.392624,-2.30216
452.5,38.0645,0.397005,-2.30838
455,38.3086,0.40183,-2.31761
457.5,38.5534,0.407223,-2.31982
460,38.7998,0.412065,-2.32619
462.5,39.0447,0.41225,-2.33113
465,39.2901,0.420986,-2.33643
467.5,39.5352,0.427728,-2.34271
470,39.7813,0.424974,-2.34872
472.5,40.0261,0.426916,-2.35331
475,40.2713,0.422659,-2.3599
477.5,40.517,0.408685,-2.36503
480,40.7624,0.412702,-2.37026
482.5,41.0079,0.392586,-2.37562
485,41.2517,0.379797,-2.38085
487.5,41.4996,0.3629,-2.38487
490,41.7445,0.354042,-2.39051
492.5,41.9926,0.323006,-2.39581
495,42.239,0.305273,-2.40077
497.5,42.4851,0.279689,-2.40468
500,42.7334,0.270149,-2.40732
502.5,42.9793,0.255398,-2.41193
505,43.2267,0.239781,-2.4154
507.5,43.4737,0.213148,-2.4183
510,43.7187,0.204644,-2.42093
512.5,43.9669,0.186433,-2.42489
515,44.2145,0.166602,-2.42653
517.5,44.4607,0.166287,-2.42904
520,44.7087,0.156928,-2.43048
522.5,44.9556,0.153836,-2.43344
525,45.2026,0.147504,-2.43665
527.5,45.4495,0.139329,-2.43805
530,45.6961,0.13186,-2.44172
532.5,45.9432,0.132605,-2.44168
535,46.1909,0.130279,-2.44562
537.5,46.438,0.135811,-2.44827
540,46.6858,0.138467,-2.44956
542.5,46.9337,0.145765,-2.45171
545,47.1817,0.142391,-2.45375
547.5,47.4303,0.142828,-2.45705
550,47.6791,0.141919,-2.45836
552.5,47.9288,0.143555,-2.45968
555,48.1769,0.143018,-2.46231
557.5,48.4243,0.144571,-2.46231
560,48.6754,0.13264,-2.46594
562.5,48.9235,0.133635,-2.46631
565,49.1727,0.125173,-2.46857
567.5,49.4223,0.118852,-2.46991
570,49.6707,0.113309,-2.47318
572.5,49.9208,0.109455,-2.47352
575,50.1699,0.110593,-2.47615
577.5,50.4202,0.107349,-2.47714
580,50.6695,0.113042,-2.47996
582.5,50.9176,0.110156,-2.47989
585,51.1672,0.100878,-2.48121
587.5,51.4167,0.101324,-2.48646
590,51.6658,0.103789,-2.48647
592.5,51.9152,0.113533,-2.48779
595,52.1654,0.114698,-2.4904
597.5,52.4144,0.114294,-2.49073
600,52.6659,0.130878,-2.49467
602.5,52.9164,0.135326,-2.49214
605,53.1679,0.141602,-2.49481
607.5,53.418,0.145089,-2.49613
610,53.6669,0.150016,-2.49972
612.5,53.9188,0.155677,-2.50107
615,54.1693,0.171769,-2.50239
617.5,54.4196,0.181819,-2.50107
620,54.6699,0.194094,-2.50495
622.5,54.92,0.199404,-2.507
625,55.1693,0.210826,-2.50702
627.5,55.4201,0.209881,-2.50996
630,55.671,0.222223,-2.51163
632.5,55.921,0.238599,-2.51259
635,56.1706,0.238135,-2.51392
637.5,56.4203,0.244613,-2.5172
640,56.6703,0.249053,-2.51852
642.5,56.9201,0.248527,-2.52115
645,57.1689,0.259435,-2.52116
647.5,57.4213,0.280286,-2.5224
650,57.6701,0.285045,-2.52379
652.5,57.921,0.274945,-2.5251
655,58.1709,0.277965,-2.52905
657.5,58.423,0.280046,-2.53049
660,58.6734,0.293464,-2.53174
662.5,58.9239,0.301854,-2.53312
665,59.1747,0.308689,-2.53444
667.5,59.4257,0.321005,-2.53609
670,59.6772,0.32843,-2.53805
672.5,59.9286,0.334942,-2.53971
675,60.1794,0.346179,-2.54299
677.5,60.4304,0.355188,-2.54373
680,60.6822,0.358178,-2.54743
682.5,60.9326,0.365635,-2.54761
685,61.1816,0.363798,-2.54891
687.5,61.4354,0.354534,-2.5526
690,61.6864,0.346948,-2.55555
692.5,61.9392,0.323919,-2.55421
695,62.1909,0.31018,-2.55684
697.5,62.4425,0.287307,-2.55906
700,62.6945,0.275346,-2.56112
702.5,62.9479,0.275688,-2.56338
705,63.2001,0.268757,-2.5659
707.5,63.4517,0.27008,-2.56725
710,63.7055,0.255682,-2.57001
712.5,63.958,0.24104,-2.57129
715,64.2108,0.231956,-2.57397
717.5,64.4634,0.219843,-2.5766
720,64.7162,0.223792,-2.57924
722.5,64.9694,0.214077,-2.58088
725,65.2209,0.217125,-2.58512
727.5,65.473,0.188587,-2.587
730,65.7253,0.162948,-2.58921
732.5,65.9753,0.148254,-2.59142
735,66.2285,0.124865,-2.59397
737.5,66.48,0.117706,-2.59667
740,66.7327,0.105039,-2.59871
742.5,66.9853,0.0839302,-2.60142
745,67.2385,0.0660325,-2.60273
747.5,67.4923,0.0493078,-2.60668
750,67.7456,0.0274189,-2.60665
752.5,67.9974,0.00969394,-2.60931
755,68.2511,-0.00966928,-2.61165
757.5,68.5041,-0.0447942,-2.61293
760,68.7573,-0.0553854,-2.61425
762.5,69.0109,-0.0723231,-2.61534
765,69.2642,-0.0947844,-2.61796
767.5,69.5181,-0.110583,-2.61974
770,69.7713,-0.130925,-2.62201
772.5,70.0261,-0.141842,-2.6226
775,70.2793,-0.161169,-2.62196
777.5,70.5321,-0.15996,-2.62456
780,70.7854,-0.17492,-2.6256
782.5,71.0385,-0.184952,-2.62886
785,71.2921,-0.197429,-2.62917
787.5,71.5451,-0.212199,-2.6302
790,71.7988,-0.216343,-2.63156