File: 01_Data/Protective_Hood/STA/N2/10K_min/Protective_Hood_STA_N2_10KData_250610_R3.csv
Temp./C,Time/min,DSC/(mW/mg),Mass loss/mg
60.0,0.0,0.753827,-0.0332035
62.5,0.322764,0.83527,-0.0339223
65,0.6295,0.895815,-0.0346334
67.5,0.926846,0.957538,-0.037278
70,1.21639,1.00498,-0.0375086
72.5,1.49909,1.0655,-0.0407808
75,1.77822,1.12458,-0.0401637
77.5,2.04961,1.18656,-0.038759
80,2.31929,1.22911,-0.046012
82.5,2.58455,1.27265,-0.0473106
85,2.84317,1.29986,-0.0499522
87.5,3.10561,1.34025,-0.053004
90,3.361,1.37174,-0.0529125
92.5,3.61124,1.39126,-0.0538649
95,3.86315,1.38974,-0.0578495
97.5,4.11119,1.39861,-0.05917
100,4.35724,1.39132,-0.0621492
102.5,4.60262,1.38246,-0.0624604
105,4.84705,1.38368,-0.06444
107.5,5.08962,1.37209,-0.0651274
110,5.33234,1.34687,-0.0670799
112.5,5.57367,1.32944,-0.0684066
115,5.81639,1.31432,-0.0710302
117.5,6.05751,1.30764,-0.0710304
120,6.29853,1.2995,-0.0723498
122.5,6.53876,1.2849,-0.0743275
125,6.77688,1.27105,-0.076301
127.5,7.01847,1.26314,-0.0763
130,7.25787,1.26033,-0.076301
132.5,7.49485,1.24873,-0.0763181
135,7.73183,1.24484,-0.07761
137.5,7.97181,1.24905,-0.077293
140,8.20947,1.24098,-0.0768108
142.5,8.44301,1.2396,-0.0771142
145,8.68371,1.24839,-0.0785159
147.5,8.91967,1.25284,-0.0810642
150,9.15587,1.24798,-0.0811347
152.5,9.39165,1.25669,-0.0798097
155,9.6283,1.27146,-0.0811299
157.5,9.86393,1.269,-0.0798221
160,10.0994,1.27944,-0.0801398
162.5,10.3364,1.29501,-0.0811296
165,10.5718,1.31152,-0.0824497
167.5,10.8069,1.32509,-0.0821248
170,11.0427,1.34332,-0.0831045
172.5,11.2789,1.35258,-0.0827562
175,11.515,1.36383,-0.0837672
177.5,11.7508,1.36984,-0.0845613
180,11.9858,1.39222,-0.0848128
182.5,12.2188,1.39309,-0.0867347
185,12.4574,1.41164,-0.08805
187.5,12.6923,1.4328,-0.08936
190,12.9273,1.43954,-0.08936
192.5,13.1626,1.45759,-0.0906795
195,13.3972,1.46081,-0.0927714
197.5,13.6331,1.48845,-0.0940815
200,13.8673,1.50407,-0.0987
202.5,14.1022,1.52672,-0.101319
205,14.3372,1.54458,-0.105314
207.5,14.5733,1.56664,-0.106286
210,14.8083,1.59678,-0.111441
212.5,15.0447,1.63133,-0.116849
215,15.2803,1.68072,-0.12218
217.5,15.5157,1.74514,-0.130085
220,15.7528,1.86536,-0.139548
222.5,15.9919,2.11123,-0.148454
225,16.2372,2.96402,-0.160857
227.5,16.4828,3.6701,-0.175346
230,16.7016,2.17658,-0.188602
232.5,16.9318,1.78474,-0.205284
235,17.1662,1.70635,-0.22662
237.5,17.4004,1.70239,-0.248624
240,17.6387,1.72109,-0.272452
242.5,17.8752,1.79349,-0.302062
245,18.1132,1.97368,-0.335591
247.5,18.3543,2.4447,-0.379419
250,18.6023,3.45863,-0.440095
252.5,18.855,4.77306,-0.518681
255,19.1047,5.84758,-0.619295
257.5,19.35,6.41514,-0.741363
260,19.5899,6.58373,-0.872642
262.5,19.8256,6.4114,-1.00246
265,20.0578,5.99107,-1.13178
267.5,20.2876,5.37363,-1.25116
270,20.5168,4.62601,-1.36287
272.5,20.7434,3.84362,-1.45913
275,20.9713,3.08545,-1.54495
277.5,21.2001,2.42075,-1.61277
280,21.4307,1.87891,-1.66709
282.5,21.662,1.4586,-1.71272
285,21.8958,1.19649,-1.74514
287.5,22.1312,1.02796,-1.77094
290,22.366,0.914708,-1.79114
292.5,22.6016,0.849971,-1.80934
295,22.8379,0.794352,-1.82627
297.5,23.0746,0.733992,-1.84224
300,23.3123,0.707072,-1.85508
302.5,23.5499,0.670931,-1.86804
305,23.7866,0.63811,-1.88199
307.5,24.0241,0.59946,-1.8949
310,24.2618,0.573924,-1.90867
312.5,24.5001,0.55078,-1.92247
315,24.7372,0.523382,-1.93509
317.5,24.9758,0.499703,-1.94913
320,25.2132,0.478732,-1.96153
322.5,25.4517,0.450861,-1.97558
325,25.6911,0.438271,-1.98945
327.5,25.9299,0.419344,-2.00319
330,26.1693,0.415941,-2.01794
332.5,26.4094,0.395641,-2.0299
335,26.649,0.392132,-2.0449
337.5,26.8887,0.390975,-2.05757
340,27.1284,0.39103,-2.07025
342.5,27.3682,0.401958,-2.08294
345,27.6084,0.404961,-2.09711
347.5,27.8497,0.411186,-2.11009
350,28.09,0.426841,-2.12002
352.5,28.332,0.450901,-2.13116
355,28.5728,0.468281,-2.14317
357.5,28.8144,0.493536,-2.15664
360,29.0551,0.518828,-2.16676
362.5,29.2961,0.542682,-2.17491
365,29.5382,0.562264,-2.18475
367.5,29.7792,0.591336,-2.19196
370,30.0212,0.614501,-2.20116
372.5,30.2621,0.626755,-2.21114
375,30.5053,0.647877,-2.21828
377.5,30.7465,0.655402,-2.22506
380,30.9887,0.678715,-2.23309
382.5,31.2299,0.69503,-2.23897
385,31.4737,0.710175,-2.25042
387.5,31.7161,0.724429,-2.25571
390,31.9591,0.730694,-2.26099
392.5,32.2009,0.75079,-2.26626
395,32.4436,0.752068,-2.27274
397.5,32.6861,0.766847,-2.28151
400,32.9288,0.777055,-2.28696
402.5,33.172,0.78114,-2.29136
405,33.4155,0.786234,-2.29874
407.5,33.6584,0.798795,-2.30541
410,33.902,0.80199,-2.31021
412.5,34.1458,0.81234,-2.31517
415,34.3887,0.816587,-2.32125
417.5,34.6329,0.829592,-2.32672
420,34.8762,0.829508,-2.33319
422.5,35.1196,0.834084,-2.33901
425,35.3639,0.845265,-2.34252
427.5,35.6083,0.832302,-2.34913
430,35.8524,0.847132,-2.35572
432.5,36.0947,0.860185,-2.36121
435,36.3399,0.873108,-2.36648
437.5,36.5841,0.881405,-2.37194
440,36.8292,0.886,-2.37719
442.5,37.0743,0.897366,-2.38185
445,37.3189,0.902702,-2.38843
447.5,37.5645,0.912722,-2.39389
450,37.8094,0.919376,-2.39848
452.5,38.054,0.924357,-2.40369
455,38.2988,0.947421,-2.40918
457.5,38.5449,0.93774,-2.41632
460,38.7906,0.945564,-2.42327
462.5,39.0351,0.94206,-2.42909
465,39.2809,0.96053,-2.43324
467.5,39.527,0.967089,-2.43872
470,39.7723,0.97122,-2.44558
472.5,40.0174,0.975968,-2.45002
475,40.2651,0.978217,-2.45799
477.5,40.5114,0.974053,-2.46243
480,40.7565,0.975449,-2.46672
482.5,41.0027,0.954559,-2.47308
485,41.2493,0.944668,-2.47842
487.5,41.4957,0.93075,-2.48323
490,41.7427,0.917634,-2.48834
492.5,41.9896,0.892148,-2.4916
495,42.2331,0.869366,-2.49689
497.5,42.4823,0.844408,-2.50084
500,42.7288,0.827613,-2.50612
502.5,42.9752,0.806308,-2.5074
505,43.2224,0.776295,-2.51202
507.5,43.4697,0.756494,-2.51372
510,43.7177,0.747677,-2.51962
512.5,43.9629,0.742711,-2.52094
515,44.2106,0.734339,-2.52358
517.5,44.4582,0.725237,-2.52497
520,44.7042,0.710552,-2.52862
522.5,44.9523,0.719627,-2.53254
525,45.1993,0.70386,-2.53466
527.5,45.4483,0.700673,-2.53509
530,45.6954,0.697936,-2.53835
532.5,45.9439,0.692722,-2.54038
535,46.1897,0.687816,-2.54432
537.5,46.4391,0.681992,-2.54558
540,46.6879,0.670128,-2.54578
542.5,46.9365,0.675078,-2.54839
545,47.1845,0.675548,-2.5526
547.5,47.4338,0.668133,-2.55065
550,47.6816,0.663076,-2.55448
552.5,47.9307,0.656849,-2.55716
555,48.1794,0.64449,-2.5598
557.5,48.428,0.644957,-2.56244
560,48.6756,0.650117,-2.56112
562.5,48.9245,0.641611,-2.56376
565,49.1725,0.640597,-2.56638
567.5,49.4225,0.630054,-2.56836
570,49.6711,0.639684,-2.57
572.5,49.9201,0.635637,-2.57265
575,50.1687,0.63193,-2.57269
577.5,50.4181,0.634948,-2.57387
580,50.6664,0.637512,-2.57627
582.5,50.9159,0.644369,-2.57759
585,51.1652,0.630591,-2.57791
587.5,51.4143,0.614666,-2.58054
590,51.6649,0.631067,-2.5845
592.5,51.9152,0.633605,-2.5845
595,52.1654,0.628636,-2.58456
597.5,52.4152,0.633646,-2.58686
600,52.6657,0.630244,-2.58978
602.5,52.9146,0.640347,-2.58978
605,53.1654,0.64076,-2.5898
607.5,53.4147,0.652063,-2.59471
610,53.6651,0.649728,-2.59504
612.5,53.9149,0.640042,-2.5934
615,54.1648,0.644227,-2.59888
617.5,54.4158,0.63929,-2.5992
620,54.666,0.643682,-2.6025
622.5,54.9158,0.640241,-2.60119
625,55.1662,0.645467,-2.60546
627.5,55.4169,0.649723,-2.60679
630,55.6671,0.657365,-2.60777
632.5,55.9173,0.65777,-2.61075
635,56.168,0.674615,-2.61164
637.5,56.4173,0.670833,-2.61338
640,56.6689,0.672396,-2.61371
642.5,56.92,0.667965,-2.61504
645,57.172,0.677845,-2.61909
647.5,57.4236,0.684251,-2.62172
650,57.6743,0.670929,-2.61964
652.5,57.9259,0.678769,-2.62358
655,58.1769,0.686336,-2.62589
657.5,58.4269,0.694928,-2.62721
660,58.6781,0.71122,-2.62984
662.5,58.9287,0.720441,-2.63248
665,59.1794,0.727993,-2.63248
667.5,59.4314,0.722577,-2.63246
670,59.681,0.725795,-2.63345
672.5,59.933,0.725593,-2.63544
675,60.1832,0.729426,-2.63937
677.5,60.4346,0.745786,-2.6394
680,60.6872,0.738032,-2.63973
682.5,60.9373,0.745625,-2.64371
685,61.1892,0.751765,-2.64763
687.5,61.4408,0.744931,-2.65026
690,61.6918,0.745986,-2.65422
692.5,61.9422,0.752611,-2.65552
695,62.1926,0.756348,-2.65586
697.5,62.4443,0.748791,-2.65817
700,62.6952,0.767194,-2.6582
702.5,62.9452,0.763361,-2.66223
705,63.1956,0.767934,-2.66351
707.5,63.4481,0.778694,-2.66564
710,63.7003,0.777925,-2.66695
712.5,63.9526,0.771881,-2.6653
715,64.2054,0.766784,-2.6364
717.5,64.4572,0.755573,-2.63845
720,64.7101,0.742416,-2.653
722.5,64.9639,0.762416,-2.6643
725,65.2164,0.748553,-2.67346
727.5,65.4694,0.726434,-2.67805
730,65.7229,0.709756,-2.68166
732.5,65.9751,0.688332,-2.68563
735,66.2277,0.677629,-2.68923
737.5,66.4815,0.66298,-2.6922
740,66.7336,0.646591,-2.6935
742.5,66.9865,0.618569,-2.69876
745,67.2404,0.587197,-2.70142
747.5,67.4941,0.551376,-2.70406
750,67.7475,0.531228,-2.70501
752.5,68.0017,0.501506,-2.70635
755,68.2544,0.488745,-2.70934
757.5,68.5076,0.459616,-2.71197
760,68.7612,0.433472,-2.71361
762.5,69.0147,0.414598,-2.71622
765,69.2684,0.392435,-2.7169
767.5,69.522,0.357889,-2.72075
770,69.7759,0.315151,-2.72181
772.5,70.0295,0.269653,-2.72315
775,70.284,0.240662,-2.72446
777.5,70.5373,0.205267,-2.72448
780,70.7917,0.183964,-2.72711
782.5,71.0459,0.149851,-2.72711
785,71.2995,0.127277,-2.72843
787.5,71.5544,0.0928939,-2.7271
790,71.8087,0.0609531,-2.73106