File: 01_Data/Protective_Hood/STA/N2/10K_min/Protective_Hood_STA_N2_10KData_240319_R1.csv
Temp./C,Time/min,DSC/(mW/mg),Mass loss/mg
60.0,0.0,0.838657,-0.0264072
62.5,0.280183,0.905269,-0.0261077
65,0.552852,0.955705,-0.0274419
67.5,0.820097,1.00074,-0.0274132
70,1.08292,1.04345,-0.0266154
72.5,1.34625,1.07411,-0.0274341
75,1.60907,1.1041,-0.0287717
77.5,1.86807,1.12965,-0.0303455
80,2.12133,1.14249,-0.0320326
82.5,2.37699,1.1641,-0.0313608
85,2.63083,1.17954,-0.0317508
87.5,2.88363,1.19359,-0.0330553
90,3.12822,1.18427,-0.0344253
92.5,3.37962,1.18626,-0.03732
95,3.62707,1.17557,-0.0369887
97.5,3.87229,1.15531,-0.0383
100,4.11774,1.14756,-0.0392741
102.5,4.36083,1.14064,-0.03798
105,4.60341,1.12919,-0.0404741
107.5,4.84658,1.11914,-0.0399254
110,5.08793,1.1099,-0.0399579
112.5,5.3316,1.10305,-0.0386446
115,5.57341,1.10639,-0.0412678
117.5,5.81391,1.1033,-0.042653
120,6.05553,1.10605,-0.0439969
122.5,6.29813,1.10972,-0.0439187
125,6.53838,1.10566,-0.0426849
127.5,6.77954,1.11763,-0.0426919
130,7.02048,1.13307,-0.042076
132.5,7.26134,1.13478,-0.0407131
135,7.50062,1.14672,-0.0413858
137.5,7.74035,1.14843,-0.0418232
140,7.98082,1.16012,-0.0433602
142.5,8.22005,1.16273,-0.0440192
145,8.46035,1.18373,-0.0400518
147.5,8.69853,1.19605,-0.0413551
150,8.93601,1.20242,-0.041392
152.5,9.17562,1.21,-0.0427246
155,9.41318,1.21476,-0.0427037
157.5,9.65129,1.22072,-0.0438989
160,9.89003,1.2286,-0.0420391
162.5,10.125,1.23336,-0.044775
165,10.3643,1.23961,-0.0460994
167.5,10.6019,1.2463,-0.04347
170,10.8406,1.27271,-0.0447731
172.5,11.0759,1.28303,-0.04479
175,11.3155,1.30102,-0.0445632
177.5,11.5553,1.29936,-0.04248
180,11.7925,1.31076,-0.0427791
182.5,12.0305,1.31043,-0.045443
185,12.267,1.32302,-0.04808
187.5,12.5058,1.32268,-0.04907
190,12.7409,1.32872,-0.0493998
192.5,12.979,1.34228,-0.0510566
195,13.2167,1.35329,-0.0535976
197.5,13.4533,1.36698,-0.0533982
200,13.6909,1.38352,-0.0566499
202.5,13.9287,1.40392,-0.0566485
205,14.164,1.42388,-0.0625686
207.5,14.4016,1.43878,-0.06521
210,14.6401,1.46884,-0.0704876
212.5,14.8776,1.48836,-0.0754007
215,15.1128,1.51621,-0.0809112
217.5,15.3538,1.56076,-0.0891258
220,15.5939,1.64586,-0.094687
222.5,15.8342,1.8234,-0.104876
225,16.0767,2.2532,-0.116433
227.5,16.3162,2.1824,-0.133554
230,16.5472,1.7679,-0.14685
232.5,16.7807,1.5741,-0.163415
235,17.0164,1.46562,-0.181276
237.5,17.2544,1.4235,-0.198259
240,17.4916,1.40607,-0.218734
242.5,17.7282,1.37222,-0.238404
245,17.9648,1.33501,-0.256867
247.5,18.2007,1.33837,-0.269627
250,18.4396,1.4255,-0.281667
252.5,18.6786,1.62995,-0.296299
255,18.92,2.00528,-0.321976
257.5,19.1654,2.58725,-0.354031
260,19.4099,3.25024,-0.398587
262.5,19.6574,3.85627,-0.462665
265,19.9013,4.28614,-0.535366
267.5,20.1429,4.49814,-0.618389
270,20.3834,4.54352,-0.705791
272.5,20.6209,4.42103,-0.797246
275,20.856,4.09969,-0.883134
277.5,21.0893,3.66406,-0.96278
280,21.3219,3.15274,-1.03033
282.5,21.5534,2.61327,-1.08913
285,21.7852,2.04859,-1.13815
287.5,22.0178,1.54597,-1.17284
290,22.2504,1.21697,-1.19096
292.5,22.4853,1.03377,-1.20819
295,22.7236,0.946874,-1.21989
297.5,22.9604,0.910471,-1.22964
300,23.1981,0.888366,-1.23916
302.5,23.4375,0.87585,-1.24771
305,23.6749,0.859387,-1.25404
307.5,23.9144,0.838826,-1.26374
310,24.153,0.825927,-1.27333
312.5,24.3922,0.816732,-1.27825
315,24.6314,0.794965,-1.28719
317.5,24.8715,0.789698,-1.29689
320,25.1102,0.764183,-1.30257
322.5,25.3524,0.753882,-1.30927
325,25.5901,0.74487,-1.31455
327.5,25.83,0.742109,-1.3243
330,26.0735,0.740036,-1.32904
332.5,26.3139,0.729769,-1.33689
335,26.5535,0.721722,-1.34519
337.5,26.7959,0.729658,-1.35274
340,27.0369,0.721077,-1.35729
342.5,27.2787,0.722498,-1.365
345,27.5184,0.718007,-1.3724
347.5,27.7605,0.717058,-1.37766
350,28.0024,0.728432,-1.38285
352.5,28.2438,0.729884,-1.38483
355,28.4869,0.735128,-1.3926
357.5,28.7284,0.746601,-1.40192
360,28.9702,0.76339,-1.40719
362.5,29.2147,0.765656,-1.41254
365,29.4574,0.778084,-1.41487
367.5,29.6998,0.791362,-1.42047
370,29.9433,0.792716,-1.42764
372.5,30.1847,0.801964,-1.42914
375,30.4275,0.813453,-1.43289
377.5,30.6706,0.813921,-1.43828
380,30.914,0.820802,-1.44144
382.5,31.1561,0.83031,-1.44463
385,31.4009,0.841807,-1.44727
387.5,31.6427,0.84566,-1.45169
390,31.8894,0.849971,-1.45711
392.5,32.1332,0.862594,-1.46198
395,32.3764,0.86628,-1.462
397.5,32.6204,0.879167,-1.46521
400,32.8652,0.882206,-1.46989
402.5,33.1094,0.893465,-1.47252
405,33.3548,0.904851,-1.4755
407.5,33.5981,0.910853,-1.48042
410,33.8429,0.932387,-1.48305
412.5,34.0891,0.942654,-1.48667
415,34.3339,0.95028,-1.48877
417.5,34.5788,0.958173,-1.48733
420,34.8231,0.977236,-1.49277
422.5,35.0673,0.979155,-1.50055
425,35.3125,0.989535,-1.50299
427.5,35.5579,1.00438,-1.50465
430,35.8051,1.0112,-1.50996
432.5,36.0511,1.02219,-1.51752
435,36.298,1.01788,-1.52062
437.5,36.5427,1.02183,-1.51996
440,36.789,1.01176,-1.52653
442.5,37.0349,1.00694,-1.53179
445,37.2805,1.00126,-1.53241
447.5,37.5269,0.997726,-1.53948
450,37.771,0.985703,-1.54364
452.5,38.02,0.982779,-1.54585
455,38.2654,0.972856,-1.55271
457.5,38.5131,0.962665,-1.55684
460,38.7589,0.965122,-1.55894
462.5,39.0061,0.960179,-1.56525
465,39.2531,0.968474,-1.57033
467.5,39.4997,0.966415,-1.57899
470,39.7465,0.963819,-1.58219
472.5,39.9938,0.967058,-1.58753
475,40.2412,0.97568,-1.59382
477.5,40.4896,0.979195,-1.59943
480,40.7373,0.985225,-1.60542
482.5,40.9841,0.993421,-1.61128
485,41.2333,0.995335,-1.62211
487.5,41.4815,0.985679,-1.63366
490,41.7292,0.980767,-1.63271
492.5,41.9771,0.958178,-1.64857
495,42.2248,0.941697,-1.66078
497.5,42.4704,0.9337,-1.67174
500,42.7194,0.925601,-1.68291
502.5,42.9685,0.922586,-1.69244
505,43.2179,0.92459,-1.70539
507.5,43.4669,0.920376,-1.71926
510,43.7161,0.922115,-1.73372
512.5,43.9657,0.917543,-1.7489
515,44.2156,0.914606,-1.76079
517.5,44.4646,0.9242,-1.77995
520,44.7136,0.927299,-1.79138
522.5,44.9624,0.923454,-1.80748
525,45.2118,0.918264,-1.8263
527.5,45.4615,0.916089,-1.83935
530,45.7103,0.911682,-1.85012
532.5,45.9607,0.907632,-1.8689
535,46.2109,0.901082,-1.88562
537.5,46.4613,0.893312,-1.9032
540,46.7117,0.881792,-1.91826
542.5,46.9621,0.87708,-1.9278
545,47.2101,0.85512,-1.9472
547.5,47.461,0.860731,-1.95919
550,47.7111,0.857521,-1.97406
552.5,47.9604,0.840762,-1.99055
555,48.2112,0.833769,-2.00542
557.5,48.46,0.82169,-2.02209
560,48.7106,0.816367,-2.03374
562.5,48.9593,0.812166,-2.05238
565,49.2119,0.810476,-2.06599
567.5,49.4629,0.792502,-2.08071
570,49.7129,0.798266,-2.09269
572.5,49.9641,0.799446,-2.10782
575,50.2148,0.781843,-2.12251
577.5,50.4645,0.780803,-2.13599
580,50.7155,0.778391,-2.14819
582.5,50.9668,0.768598,-2.16339
585,51.2174,0.776857,-2.17457
587.5,51.4681,0.763413,-2.18564
590,51.718,0.755017,-2.1975
592.5,51.9701,0.760691,-2.21027
595,52.2207,0.759158,-2.22437
597.5,52.4733,0.761065,-2.2337
600,52.725,0.766483,-2.24168
602.5,52.9772,0.763824,-2.2534
605,53.2287,0.770162,-2.26448
607.5,53.4816,0.765289,-2.27485
610,53.7318,0.76741,-2.2841
612.5,53.9843,0.757433,-2.29347
615,54.2369,0.75954,-2.30075
617.5,54.4893,0.752354,-2.30953
620,54.7409,0.747312,-2.31719
622.5,54.9919,0.741409,-2.32267
625,55.2444,0.74408,-2.32677
627.5,55.495,0.742139,-2.33234
630,55.7454,0.73396,-2.33895
632.5,55.9954,0.728188,-2.34562
635,56.2466,0.720293,-2.35221
637.5,56.5002,0.712647,-2.35584
640,56.7514,0.711027,-2.3611
642.5,57.0016,0.717607,-2.3678
645,57.2544,0.722162,-2.37523
647.5,57.5068,0.727964,-2.37551
650,57.7591,0.729094,-2.37811
652.5,58.0114,0.725292,-2.3834
655,58.2645,0.719962,-2.38826
657.5,58.5179,0.714716,-2.39129
660,58.7688,0.70998,-2.39655
662.5,59.0211,0.690256,-2.3992
665,59.2727,0.689072,-2.40248
667.5,59.5257,0.682125,-2.40379
670,59.7775,0.679722,-2.40644
672.5,60.0304,0.668968,-2.40932
675,60.2825,0.651744,-2.41363
677.5,60.5356,0.632506,-2.41697
680,60.7883,0.631446,-2.42096
682.5,61.0424,0.611713,-2.42487
685,61.295,0.602054,-2.42755
687.5,61.5481,0.584599,-2.42982
690,61.8008,0.56042,-2.43247
692.5,62.0527,0.542976,-2.4339
695,62.3054,0.533207,-2.43496
697.5,62.5583,0.513342,-2.43904
700,62.8114,0.502694,-2.443
702.5,63.0641,0.483479,-2.44431
705,63.3171,0.462864,-2.44695
707.5,63.5685,0.443924,-2.44767
710,63.823,0.425184,-2.44992
712.5,64.0757,0.407169,-2.45428
715,64.33,0.386537,-2.45654
717.5,64.5838,0.360198,-2.45804
720,64.838,0.335108,-2.45903
722.5,65.093,0.312886,-2.46034
725,65.3475,0.300383,-2.46298
727.5,65.6032,0.278753,-2.46704
730,65.8573,0.260638,-2.46835
732.5,66.111,0.244372,-2.46965
735,66.3652,0.221457,-2.471
737.5,66.62,0.212523,-2.47226
740,66.8735,0.187451,-2.47362
742.5,67.1286,0.161336,-2.47758
745,67.3837,0.145487,-2.4789
747.5,67.6385,0.120722,-2.48052
750,67.8933,0.112049,-2.48149
752.5,68.1463,0.0946477,-2.48408
755,68.4022,0.0849799,-2.48672
757.5,68.657,0.0681152,-2.48672
760,68.9127,0.0750213,-2.48932
762.5,69.169,0.0602973,-2.49196
765,69.4249,0.0604499,-2.49459
767.5,69.6812,0.0548723,-2.4946
770,69.9374,0.0550084,-2.49592
772.5,70.1939,0.0609053,-2.49723
775,70.4493,0.0632248,-2.49722
777.5,70.7053,0.0680364,-2.49921
780,70.9609,0.080855,-2.50184
782.5,71.2168,0.103513,-2.50184
785,71.472,0.113973,-2.50315
787.5,71.7298,0.136926,-2.50184
790,71.9868,0.152342,-2.50184