File: 01_Data/Engineered_Wood_Furniture/Cone/Engineered_Wood_Furniture_Cone_HF75Scalar_220330_R2.csv
LABORATORY,FSRI
TEST IDENT,EngWoodFurn_HF75_2
OPERATOR,Dow
MATERIAL,Engineered Wood Furniture - Wood Veneer on MDF
ORIENTATION,Horizontal
HEAT FLUX,75
SURF AREA,0.01
C FACTOR,0.0402475
SPEC HOLDER DIFF,-566
SPECIMEN MASS,112.84
SCAN TIME,0.25
O2 DELAY TIME,11
CO DELAY TIME,11
CO2 DELAY TIME,8
FLOW FACTOR,1
SCAN COUNT,3486
TIME TO IGN,11.75
END OF TEST SCAN,3006
END OF TEST TIME,751.5
TEST STATUS,1
PRE TEST CMT,Dimensions: 101.02 x 100.56 x 13.76 mm
POST TEST CMT,The sample formed cracks while burning and warped into an arched shape during the fire decay phase. See representative test picture.