File: 01_Data/Engineered_Wood_Furniture/Cone/Engineered_Wood_Furniture_Cone_HF25Scalar_220330_R3.csv
LABORATORY,FSRI
TEST IDENT,EngWoodFurn_HF25_3
OPERATOR,Dow
MATERIAL,Engineered Wood Furniture - Wood Veneer on MDF
ORIENTATION,Horizontal
HEAT FLUX,25
SURF AREA,0.01
C FACTOR,0.0395835
SPEC HOLDER DIFF,-566
SPECIMEN MASS,112.26
SCAN TIME,0.25
O2 DELAY TIME,11
CO DELAY TIME,11
CO2 DELAY TIME,8
FLOW FACTOR,1
SCAN COUNT,5362
TIME TO IGN,116.25
END OF TEST SCAN,4882
END OF TEST TIME,1220.5
TEST STATUS,1
PRE TEST CMT,Dimensions: 99.98 x 101.01 x 13.72 mm
POST TEST CMT,"The sample formed cracks while burning and warped into an arched shape during the fire decay phase. Warping was less pronounced than shown in the representative test picture."