File: 01_Data/Three_Layer_Turnout_Gear_Moisture_Barrier/STA/N2/10K_min/Three_Layer_Turnout_Gear_Moisture_Barrier_STA_N2_10KData_240531_R2.csv
Temp./C,Time/min,DSC/(mW/mg),Mass loss/mg
60.0,0.0,0.74207,-0.0280991
62.5,0.277373,0.800636,-0.0293952
65,0.549913,0.838609,-0.031683
67.5,0.816441,0.887354,-0.0291002
70,1.07784,0.925727,-0.0317269
72.5,1.34516,0.962304,-0.0315211
75,1.60473,0.99561,-0.0328723
77.5,1.86333,1.01732,-0.03547
80,2.12107,1.04109,-0.0377698
82.5,2.37561,1.05969,-0.0394989
85,2.62959,1.06347,-0.0374399
87.5,2.88116,1.07064,-0.0428314
90,3.13008,1.06317,-0.0446929
92.5,3.37872,1.06079,-0.046
95,3.62495,1.05805,-0.0459136
97.5,3.8712,1.0314,-0.0469874
100,4.11544,1.01034,-0.0487912
102.5,4.35969,0.996765,-0.0485252
105,4.60331,0.974036,-0.0493361
107.5,4.84392,0.962053,-0.0491302
110,5.08987,0.934337,-0.0529203
112.5,5.33193,0.91903,-0.0516927
115,5.57435,0.908585,-0.04996
117.5,5.81764,0.90424,-0.0502911
120,6.05898,0.887217,-0.0516
122.5,6.30025,0.880532,-0.05292
125,6.54056,0.882453,-0.05292
127.5,6.78115,0.874705,-0.0529302
130,7.02065,0.869771,-0.05292
132.5,7.26137,0.883896,-0.05424
135,7.50078,0.885114,-0.0529193
137.5,7.74018,0.877099,-0.0555609
140,7.97984,0.885413,-0.05556
142.5,8.21784,0.87992,-0.0568702
145,8.45706,0.882365,-0.0555504
147.5,8.69678,0.889198,-0.0565355
150,8.93596,0.885043,-0.0565482
152.5,9.1732,0.888039,-0.0565476
155,9.41173,0.882324,-0.05787
157.5,9.65018,0.903621,-0.0578991
160,9.88807,0.903584,-0.0575306
162.5,10.1263,0.897089,-0.0575294
165,10.3644,0.918896,-0.0572
167.5,10.6019,0.925739,-0.0585286
170,10.8405,0.924872,-0.0598565
172.5,11.0794,0.929686,-0.0598302
175,11.3173,0.930518,-0.0598306
177.5,11.5544,0.927245,-0.0628133
180,11.7923,0.932091,-0.0612046
182.5,12.0301,0.925962,-0.0619203
185,12.2682,0.93853,-0.0643303
187.5,12.5062,0.941211,-0.06433
190,12.7429,0.935127,-0.063018
192.5,12.9792,0.940482,-0.06368
195,13.2166,0.946232,-0.0646696
197.5,13.4546,0.944586,-0.0661787
200,13.6919,0.951176,-0.0688795
202.5,13.9304,0.954925,-0.0669795
205,14.166,0.943321,-0.06829
207.5,14.4021,0.945629,-0.06829
210,14.6404,0.949389,-0.06994
212.5,14.8771,0.958448,-0.0686187
215,15.1152,0.962524,-0.0696397
217.5,15.3512,0.974194,-0.0712863
220,15.5894,0.985893,-0.0718069
222.5,15.8271,1.00067,-0.07323
225,16.0648,1.01091,-0.0722517
227.5,16.3016,1.03833,-0.0745394
230,16.5403,1.06644,-0.0751941
232.5,16.7779,1.09577,-0.07784
235,17.0165,1.11276,-0.0785637
237.5,17.2536,1.15185,-0.0802098
240,17.4915,1.16582,-0.0801497
242.5,17.7291,1.17641,-0.0827858
245,17.9672,1.18518,-0.084055
247.5,18.2051,1.17967,-0.08674
250,18.4434,1.17698,-0.089428
252.5,18.6813,1.18456,-0.0906897
255,18.918,1.16804,-0.094427
257.5,19.1561,1.14762,-0.09464
260,19.3931,1.12682,-0.0961742
262.5,19.6315,1.1229,-0.098635
265,19.8698,1.13093,-0.100937
267.5,20.107,1.16791,-0.106486
270,20.3459,1.19668,-0.110194
272.5,20.5858,1.22143,-0.114403
275,20.8234,1.23138,-0.118362
277.5,21.062,1.23954,-0.123754
280,21.3004,1.24203,-0.131645
282.5,21.5396,1.25036,-0.138335
285,21.7793,1.248,-0.14613
287.5,22.0176,1.25309,-0.151605
290,22.257,1.2509,-0.164008
292.5,22.4959,1.22043,-0.175574
295,22.7351,1.196,-0.187942
297.5,22.9729,1.14542,-0.197467
300,23.2119,1.07927,-0.209737
302.5,23.449,0.91301,-0.220461
305,23.6854,0.671783,-0.232505
307.5,23.9173,0.0898648,-0.25144
310,24.1596,0.300381,-0.279115
312.5,24.4026,0.576536,-0.302381
315,24.6443,0.742567,-0.325113
317.5,24.8859,0.85677,-0.343839
320,25.1279,0.947229,-0.363675
322.5,25.3686,1.04373,-0.380038
325,25.612,1.24775,-0.396641
327.5,25.8574,1.73792,-0.414541
330,26.0938,1.26873,-0.428773
332.5,26.3331,1.01217,-0.442529
335,26.5728,0.921178,-0.452617
337.5,26.8126,0.883047,-0.462646
340,27.0528,0.856009,-0.474802
342.5,27.2946,0.826433,-0.482329
345,27.5347,0.797458,-0.492606
347.5,27.776,0.773881,-0.502116
350,28.017,0.754816,-0.510608
352.5,28.2582,0.72948,-0.51907
355,28.4993,0.708467,-0.524568
357.5,28.7424,0.687473,-0.53246
360,28.9831,0.665284,-0.544522
362.5,29.225,0.674847,-0.549613
365,29.4675,0.681308,-0.558743
367.5,29.7098,0.697746,-0.567064
370,29.9522,0.711738,-0.575766
372.5,30.1954,0.733697,-0.585621
375,30.4384,0.747496,-0.595976
377.5,30.6814,0.769146,-0.606624
380,30.924,0.764406,-0.6182
382.5,31.1667,0.72423,-0.629783
385,31.4088,0.698862,-0.63915
387.5,31.651,0.712458,-0.651515
390,31.8942,0.729157,-0.663644
392.5,32.1381,0.733569,-0.675684
395,32.382,0.744343,-0.688515
397.5,32.6271,0.764546,-0.703648
400,32.8711,0.802204,-0.718437
402.5,33.1156,0.820729,-0.730096
405,33.3605,0.865715,-0.744121
407.5,33.6061,0.914506,-0.758417
410,33.8509,0.971481,-0.774176
412.5,34.0949,1.03774,-0.789451
415,34.3414,1.09206,-0.805069
417.5,34.5863,1.12587,-0.820041
420,34.8311,1.1554,-0.831792
422.5,35.0761,1.14502,-0.848257
425,35.3208,1.10994,-0.867009
427.5,35.5659,1.0669,-0.880215
430,35.81,1.02615,-0.898057
432.5,36.0544,0.986483,-0.912919
435,36.2996,0.966567,-0.92927
437.5,36.545,0.958712,-0.950497
440,36.7896,0.964778,-0.968103
442.5,37.0356,0.962172,-0.98711
445,37.282,0.970916,-1.00849
447.5,37.5281,0.969565,-1.02704
450,37.7734,0.967475,-1.05219
452.5,38.0183,0.963576,-1.07064
455,38.2669,0.947977,-1.09261
457.5,38.513,0.934318,-1.11565
460,38.7597,0.909489,-1.13766
462.5,39.006,0.872751,-1.16317
465,39.2531,0.842586,-1.18304
467.5,39.4993,0.7978,-1.20425
470,39.7453,0.745259,-1.22478
472.5,39.9918,0.696806,-1.24428
475,40.2376,0.634356,-1.2648
477.5,40.4834,0.583736,-1.28309
480,40.7305,0.536409,-1.30086
482.5,40.9771,0.487138,-1.31698
485,41.2236,0.435052,-1.3309
487.5,41.4696,0.372203,-1.34645
490,41.7168,0.31821,-1.36008
492.5,41.9644,0.265793,-1.37428
495,42.2109,0.230925,-1.38938
497.5,42.4585,0.203234,-1.39959
500,42.7071,0.187875,-1.41407
502.5,42.9554,0.17759,-1.42719
505,43.2039,0.165423,-1.44474
507.5,43.4493,0.175925,-1.45454
510,43.6999,0.151953,-1.46936
512.5,43.949,0.146607,-1.48362
515,44.1963,0.132291,-1.4972
517.5,44.4463,0.115471,-1.50865
520,44.6954,0.117239,-1.52544
522.5,44.9426,0.082619,-1.53873
525,45.1911,-0.0340664,-1.55277
527.5,45.4391,-0.0115589,-1.57079
530,45.6904,0.135622,-1.5869
532.5,45.9394,0.260488,-1.60286
535,46.1895,0.354818,-1.62139
537.5,46.4401,0.414834,-1.64046
540,46.6896,0.460349,-1.66062
542.5,46.9391,0.502764,-1.68191
545,47.1882,0.526254,-1.70463
547.5,47.4379,0.531161,-1.72557
550,47.6868,0.526272,-1.75214
552.5,47.936,0.507866,-1.77798
555,48.1845,0.481695,-1.80555
557.5,48.4348,0.459017,-1.83152
560,48.684,0.429121,-1.85976
562.5,48.9343,0.396854,-1.88645
565,49.1831,0.351052,-1.91444
567.5,49.4313,0.287023,-1.94225
570,49.682,0.182949,-1.97003
572.5,49.9311,0.0390823,-1.99477
575,50.1797,-0.154842,-2.01724
577.5,50.4287,-0.35584,-2.03767
580,50.6774,-0.496733,-2.05163
582.5,50.9285,-0.513861,-2.06031
585,51.1806,-0.408941,-2.07107
587.5,51.4341,-0.29518,-2.07791
590,51.6857,-0.21159,-2.08287
592.5,51.9369,-0.148671,-2.08447
595,52.1891,-0.0754865,-2.08677
597.5,52.441,-0.0328177,-2.08973
600,52.6922,0.0105734,-2.09379
602.5,52.9443,0.032368,-2.09772
605,53.1967,0.0645472,-2.10173
607.5,53.4487,0.0751903,-2.10664
610,53.6997,0.0874019,-2.10698
612.5,53.9518,0.111086,-2.11091
615,54.2043,0.130097,-2.11251
617.5,54.456,0.133169,-2.11791
620,54.7087,0.152625,-2.12157
622.5,54.9609,0.175559,-2.12288
625,55.2128,0.185636,-2.12807
627.5,55.4648,0.206274,-2.13212
630,55.7175,0.264292,-2.1338
632.5,55.9689,0.224838,-2.13744
635,56.2223,0.237514,-2.14042
637.5,56.4751,0.255901,-2.14547
640,56.728,0.263651,-2.14703
642.5,56.982,0.277703,-2.14657
645,57.2349,0.280457,-2.15236
647.5,57.4883,0.289223,-2.15559
650,57.7401,0.289567,-2.15868
652.5,57.9917,0.278242,-2.16328
655,58.2443,0.280336,-2.16592
657.5,58.4972,0.290222,-2.16855
660,58.7487,0.291355,-2.16987
662.5,58.9993,0.292943,-2.17251
665,59.2532,0.295626,-2.17645
667.5,59.5047,0.294735,-2.18041
670,59.757,0.285326,-2.18337
672.5,60.01,0.287273,-2.18568
675,60.2633,0.276361,-2.19104
677.5,60.516,0.277259,-2.1947
680,60.7689,0.278047,-2.19336
682.5,61.022,0.26109,-2.19604
685,61.275,0.264187,-2.19995
687.5,61.5279,0.262714,-2.20256
690,61.7818,0.25626,-2.20786
692.5,62.0356,0.242354,-2.21082
695,62.289,0.240488,-2.21566
697.5,62.5426,0.233574,-2.21477
700,62.7946,0.223502,-2.21741
702.5,63.0497,0.215936,-2.21935
705,63.3048,0.195981,-2.22169
707.5,63.5589,0.186769,-2.22575
710,63.8122,0.179566,-2.2284
712.5,64.0667,0.167935,-2.2297
715,64.32,0.153565,-2.23019
717.5,64.5734,0.151241,-2.23399
720,64.8281,0.126977,-2.23893
722.5,65.0823,0.107664,-2.24156
725,65.3366,0.102396,-2.24403
727.5,65.5911,0.0933352,-2.24815
730,65.8437,0.0847115,-2.24863
732.5,66.0979,0.0783653,-2.25242
735,66.3512,0.0538483,-2.2543
737.5,66.6058,0.0405738,-2.25638
740,66.8595,0.0287987,-2.25901
742.5,67.114,0.0226439,-2.26034
745,67.3679,0.0060539,-2.26197
747.5,67.623,-0.00176135,-2.26431
750,67.8791,-0.0206131,-2.26824
752.5,68.1339,-0.0276798,-2.27087
755,68.3887,-0.0277467,-2.26955
757.5,68.6438,-0.0390695,-2.27351
760,68.8975,-0.0476144,-2.27532
762.5,69.1523,-0.0631125,-2.27811
765,69.4073,-0.0717711,-2.27944
767.5,69.6618,-0.0797648,-2.28339
770,69.9165,-0.0776841,-2.28298
772.5,70.1726,-0.087119,-2.28569
775,70.4274,-0.0883754,-2.28876
777.5,70.6831,-0.0886629,-2.28625
780,70.9389,-0.0926073,-2.28888
782.5,71.1954,-0.09408,-2.29052
785,71.4514,-0.0905806,-2.29049
787.5,71.709,-0.102848,-2.29513
790,71.9662,-0.104617,-2.29777