File: 01_Data/Three_Layer_Turnout_Gear_Moisture_Barrier/STA/N2/10K_min/Three_Layer_Turnout_Gear_Moisture_Barrier_STA_N2_10KData_240523_R1.csv
Temp./C,Time/min,DSC/(mW/mg),Mass loss/mg
60.0,0.0,0.944868,-0.0167559
62.5,0.280161,1.01509,-0.0192113
65,0.552553,1.07656,-0.0205
67.5,0.823722,1.12892,-0.0205108
70,1.08715,1.17192,-0.0215186
72.5,1.35064,1.21685,-0.0221584
75,1.6089,1.25925,-0.0247156
77.5,1.86688,1.28218,-0.0247862
80,2.12356,1.31005,-0.0270167
82.5,2.37766,1.34075,-0.0271274
85,2.63126,1.34905,-0.02975
87.5,2.88212,1.3517,-0.0310709
90,3.13113,1.34149,-0.03272
92.5,3.3784,1.34596,-0.0328176
95,3.6257,1.32522,-0.0338195
97.5,3.8714,1.31221,-0.0351303
100,4.11578,1.29293,-0.0374542
102.5,4.35979,1.27161,-0.0364723
105,4.60323,1.25098,-0.0367794
107.5,4.84589,1.24984,-0.0384309
110,5.08794,1.23707,-0.0371039
112.5,5.33191,1.22376,-0.0410582
115,5.57206,1.21894,-0.0384281
117.5,5.81539,1.21651,-0.039703
120,6.05668,1.21858,-0.0384309
122.5,6.29791,1.21351,-0.0411693
125,6.53896,1.22615,-0.0392
127.5,6.78044,1.22055,-0.0396923
130,7.02179,1.23274,-0.0415
132.5,7.26216,1.23049,-0.041451
135,7.50116,1.24055,-0.0430039
137.5,7.74233,1.24049,-0.0416094
140,7.97926,1.24331,-0.04161
142.5,8.2202,1.24016,-0.0416102
145,8.45967,1.25416,-0.04128
147.5,8.69866,1.26146,-0.0398465
150,8.93581,1.27335,-0.0441169
152.5,9.17587,1.2763,-0.0433719
155,9.41494,1.28003,-0.0437042
157.5,9.65358,1.29098,-0.04271
160,9.89202,1.29555,-0.0437008
162.5,10.1304,1.30326,-0.0440767
165,10.3696,1.31519,-0.0434091
167.5,10.6073,1.31823,-0.0438
170,10.8455,1.33325,-0.0451224
172.5,11.0836,1.33366,-0.0461246
175,11.3227,1.33412,-0.04479
177.5,11.5603,1.34184,-0.0461062
180,11.7987,1.34216,-0.0454552
182.5,12.0359,1.34721,-0.0468243
185,12.2728,1.3516,-0.0469862
187.5,12.5121,1.35362,-0.0469011
190,12.7498,1.36108,-0.0459204
192.5,12.9875,1.36098,-0.0481978
195,13.2255,1.36333,-0.049586
197.5,13.4628,1.3658,-0.04984
200,13.7011,1.37823,-0.049839
202.5,13.9386,1.38558,-0.04985
205,14.1783,1.39332,-0.0511643
207.5,14.4147,1.39436,-0.0511398
210,14.6516,1.39329,-0.0511602
212.5,14.8893,1.39303,-0.0511601
215,15.1273,1.41152,-0.0516405
217.5,15.3629,1.42179,-0.0522696
220,15.601,1.42772,-0.0528474
222.5,15.8384,1.4446,-0.0537915
225,16.0771,1.46633,-0.05511
227.5,16.3154,1.48873,-0.0551071
230,16.5544,1.50762,-0.0537945
232.5,16.7925,1.54225,-0.0557307
235,17.0287,1.57877,-0.0590686
237.5,17.2668,1.61491,-0.0596661
240,17.5056,1.64112,-0.0617008
242.5,17.7435,1.67073,-0.0636653
245,17.981,1.68151,-0.0671423
247.5,18.2198,1.69073,-0.0666371
250,18.4564,1.69211,-0.0696192
252.5,18.6945,1.6905,-0.0725699
255,18.9336,1.66614,-0.0762122
257.5,19.1721,1.64563,-0.07916
260,19.4095,1.62554,-0.0817863
262.5,19.6478,1.61586,-0.0857478
265,19.8874,1.63013,-0.0883813
267.5,20.1251,1.65245,-0.092329
270,20.3634,1.68752,-0.0949643
272.5,20.603,1.69587,-0.0992416
275,20.8424,1.70847,-0.105861
277.5,21.0806,1.71725,-0.11115
280,21.3205,1.72064,-0.116301
282.5,21.5591,1.7049,-0.124403
285,21.7984,1.71404,-0.133083
287.5,22.0374,1.70348,-0.142719
290,22.2782,1.7,-0.154864
292.5,22.5161,1.67212,-0.165564
295,22.752,1.6482,-0.17781
297.5,22.9945,1.62692,-0.189815
300,23.2333,1.55309,-0.203678
302.5,23.4708,1.40192,-0.213113
305,23.7097,1.15544,-0.227361
307.5,23.9444,0.691824,-0.244272
310,24.1855,0.848676,-0.273458
312.5,24.4294,1.0639,-0.300825
315,24.672,1.21215,-0.321992
317.5,24.9118,1.3118,-0.34182
320,25.1563,1.38292,-0.359694
322.5,25.3969,1.47815,-0.377029
325,25.6395,1.64472,-0.392231
327.5,25.8863,2.11391,-0.404904
330,26.1244,1.76086,-0.41761
332.5,26.3616,1.48504,-0.42711
335,26.6009,1.40755,-0.438914
337.5,26.8418,1.36687,-0.447852
340,27.083,1.3476,-0.457571
342.5,27.3238,1.33405,-0.465893
345,27.5655,1.3186,-0.474161
347.5,27.8066,1.29969,-0.482905
350,28.0478,1.2937,-0.491365
352.5,28.2909,1.27181,-0.498962
355,28.5321,1.26725,-0.506536
357.5,28.7751,1.26091,-0.514215
360,29.0168,1.24234,-0.521017
362.5,29.2597,1.23185,-0.531001
365,29.5032,1.24075,-0.538511
367.5,29.7462,1.25576,-0.548082
370,29.9891,1.25773,-0.555666
372.5,30.2324,1.26692,-0.565165
375,30.4762,1.29377,-0.574639
377.5,30.7193,1.32171,-0.585075
380,30.9634,1.3353,-0.597185
382.5,31.2073,1.29421,-0.607823
385,31.451,1.27602,-0.618623
387.5,31.695,1.28672,-0.629531
390,31.9389,1.2971,-0.643502
392.5,32.1835,1.31367,-0.653997
395,32.428,1.33396,-0.666763
397.5,32.6728,1.35541,-0.680526
400,32.9182,1.3921,-0.694148
402.5,33.1641,1.42194,-0.70762
405,33.4101,1.45722,-0.722732
407.5,33.6552,1.5058,-0.737118
410,33.9009,1.55918,-0.751615
412.5,34.1466,1.62403,-0.765463
415,34.3921,1.69135,-0.779811
417.5,34.638,1.76083,-0.793873
420,34.8836,1.77756,-0.809011
422.5,35.1294,1.80009,-0.823204
425,35.3744,1.77865,-0.839141
427.5,35.6195,1.75141,-0.854021
430,35.8649,1.71777,-0.870436
432.5,36.1104,1.70718,-0.888535
435,36.3562,1.7171,-0.906619
437.5,36.6029,1.73677,-0.922613
440,36.8491,1.7521,-0.94333
442.5,37.0946,1.75557,-0.962053
445,37.343,1.75829,-0.983041
447.5,37.5885,1.75615,-1.00444
450,37.8359,1.74239,-1.02727
452.5,38.0834,1.73467,-1.0505
455,38.3311,1.73122,-1.07294
457.5,38.5769,1.70698,-1.09567
460,38.8237,1.68131,-1.11953
462.5,39.0715,1.64032,-1.14408
465,39.3185,1.60445,-1.16686
467.5,39.5656,1.56252,-1.1881
470,39.8133,1.52072,-1.20857
472.5,40.0595,1.45785,-1.23018
475,40.3079,1.39856,-1.24914
477.5,40.5546,1.33339,-1.26811
480,40.802,1.289,-1.28487
482.5,41.0507,1.23094,-1.3008
485,41.2976,1.16016,-1.31718
487.5,41.5459,1.07323,-1.33523
490,41.7945,1.00354,-1.34934
492.5,42.0439,0.955612,-1.36367
495,42.2917,0.912363,-1.37709
497.5,42.5406,0.899444,-1.39059
500,42.79,0.883784,-1.40476
502.5,43.0381,0.874055,-1.4166
505,43.2867,0.860578,-1.42972
507.5,43.5348,0.850648,-1.44186
510,43.783,0.827905,-1.4555
512.5,44.0325,0.799527,-1.46952
515,44.2799,0.790165,-1.47812
517.5,44.5304,0.762663,-1.49267
520,44.7793,0.726694,-1.50652
522.5,45.0286,0.743203,-1.52049
525,45.2785,0.792332,-1.53597
527.5,45.5268,0.874794,-1.54883
530,45.7795,0.934631,-1.56554
532.5,46.0301,0.991063,-1.57886
535,46.2819,1.02604,-1.59809
537.5,46.5321,1.05916,-1.61248
540,46.7822,1.09301,-1.63379
542.5,47.0317,1.13301,-1.6525
545,47.2804,1.14346,-1.67322
547.5,47.5317,1.14554,-1.69512
550,47.7811,1.12927,-1.71868
552.5,48.0321,1.13219,-1.74319
555,48.2805,1.10264,-1.76968
557.5,48.5311,1.04438,-1.79537
560,48.7817,0.980251,-1.82291
562.5,49.0325,0.938898,-1.84967
565,49.2819,0.908392,-1.87736
567.5,49.5333,0.865437,-1.90493
570,49.7843,0.785473,-1.92939
572.5,50.034,0.637564,-1.95491
575,50.2834,0.494824,-1.97661
577.5,50.5339,0.352355,-1.99388
580,50.7849,0.279972,-2.00866
582.5,51.0365,0.303573,-2.01889
585,51.2893,0.456268,-2.02818
587.5,51.5443,0.615951,-2.03308
590,51.7975,0.735017,-2.03845
592.5,52.0508,0.8657,-2.04154
595,52.3039,0.938476,-2.04262
597.5,52.5562,0.973623,-2.04908
600,52.8103,1.01109,-2.05063
602.5,53.0629,1.03194,-2.05558
605,53.3149,1.04884,-2.0575
607.5,53.5679,1.07425,-2.05997
610,53.8202,1.07197,-2.06387
612.5,54.0738,1.08865,-2.06913
615,54.3277,1.1041,-2.07067
617.5,54.5803,1.1224,-2.07583
620,54.8339,1.14963,-2.0771
622.5,55.0868,1.15655,-2.08278
625,55.3401,1.17512,-2.0856
627.5,55.5922,1.20886,-2.08829
630,55.8449,1.22475,-2.09093
632.5,56.0972,1.23071,-2.09468
635,56.3489,1.24888,-2.09785
637.5,56.6024,1.24583,-2.10183
640,56.8555,1.24968,-2.10408
642.5,57.1062,1.25107,-2.1058
645,57.3624,1.2572,-2.1097
647.5,57.6161,1.26055,-2.11102
650,57.8699,1.26297,-2.11397
652.5,58.1233,1.27322,-2.11684
655,58.3773,1.28399,-2.12032
657.5,58.6307,1.28327,-2.12288
660,58.8827,1.2964,-2.1255
662.5,59.1379,1.29887,-2.12353
665,59.391,1.30302,-2.13265
667.5,59.6457,1.30499,-2.13397
670,59.8989,1.30809,-2.13804
672.5,60.155,1.31202,-2.13967
675,60.4068,1.31009,-2.14231
677.5,60.6621,1.31192,-2.14363
680,60.9163,1.31551,-2.14627
682.5,61.1685,1.30848,-2.15008
685,61.4225,1.30672,-2.15154
687.5,61.676,1.29928,-2.15461
690,61.9296,1.29803,-2.15812
692.5,62.1833,1.29888,-2.16074
695,62.438,1.30703,-2.16151
697.5,62.6905,1.28862,-2.16235
700,62.9445,1.28836,-2.16831
702.5,63.1977,1.27748,-2.17162
705,63.4517,1.27035,-2.17459
707.5,63.7073,1.28277,-2.17757
710,63.9607,1.2591,-2.18081
712.5,64.2175,1.25463,-2.18348
715,64.4722,1.25358,-2.18479
717.5,64.7265,1.24148,-2.18691
720,64.9805,1.23354,-2.1906
722.5,65.2351,1.22794,-2.19468
725,65.4896,1.21427,-2.19468
727.5,65.7444,1.18933,-2.20061
730,65.9991,1.16524,-2.20061
732.5,66.255,1.16678,-2.20326
735,66.5095,1.13946,-2.20557
737.5,66.7647,1.13641,-2.20864
740,67.0182,1.1219,-2.2096
742.5,67.2744,1.11057,-2.21389
745,67.5291,1.09611,-2.214
747.5,67.7846,1.08983,-2.21596
750,68.04,1.08,-2.21928
752.5,68.2957,1.06463,-2.22191
755,68.5512,1.06786,-2.22424
757.5,68.8073,1.05481,-2.22633
760,69.0618,1.03772,-2.22783
762.5,69.3174,1.02656,-2.23047
765,69.5731,1.01844,-2.2331
767.5,69.8283,1.0158,-2.23509
770,70.0835,1.0065,-2.23573
772.5,70.3373,0.998042,-2.23837
775,70.5932,1.0037,-2.23903
777.5,70.8493,0.977084,-2.24172
780,71.1045,0.993444,-2.24164
782.5,71.36,0.980987,-2.2443
785,71.6137,0.983436,-2.24562
787.5,71.8712,0.97343,-2.24472
790,72.1265,0.947842,-2.24964