File: 01_Data/Helmet_Shield/STA/N2/10K_min/Helmet_Shield_STA_N2_10KData_240225_R2.csv
Temp./C,Time/min,DSC/(mW/mg),Mass loss/mg
60.0,0.0,0.778244,0.0273095
62.3,0.259741,0.825596,0.0287704
64.6,0.512906,0.85352,0.0287586
66.9,0.760203,0.874557,0.028365
69.2,1.00396,0.883928,0.0300809
71.5,1.25055,0.906867,0.0285428
73.8,1.49144,0.93018,0.0300774
76.1,1.73032,0.930542,0.02876
78.4,1.96756,0.947542,0.0301354
80.7,2.2041,0.945556,0.0304098
83,2.43908,0.967045,0.031373
85.3,2.67141,0.977016,0.0313991
87.6,2.90386,0.981555,0.0300797
89.9,3.1334,0.987407,0.03008
92.2,3.36212,0.980166,0.0300791
94.5,3.59108,0.980539,0.0300785
96.8,3.81802,0.989808,0.0294317
99.1,4.04371,0.992177,0.0287586
101.4,4.27004,0.987036,0.0307395
103.7,4.49455,0.998173,0.03008
106,4.72,1.00432,0.0300802
108.3,4.94303,1.00162,0.03008
110.6,5.16773,1.01213,0.0313997
112.9,5.39166,1.01838,0.0313272
115.2,5.61584,1.0246,0.0302261
117.5,5.83908,1.02542,0.03205
119.8,6.06125,1.03003,0.0325
122.1,6.28494,1.03267,0.0325694
124.4,6.50684,1.03424,0.0326117
126.7,6.73024,1.03738,0.0321432
129,6.95188,1.05012,0.0321751
131.3,7.17492,1.04489,0.0321702
133.6,7.39549,1.03849,0.0321702
135.9,7.61657,1.04561,0.0325115
138.2,7.83798,1.04181,0.0321671
140.5,8.05943,1.04254,0.0341744
142.8,8.27842,1.04665,0.0315098
145.1,8.50031,1.04369,0.03151
147.4,8.72022,1.05225,0.0308881
149.7,8.9381,1.05602,0.0308495
152,9.15966,1.05812,0.0318755
154.3,9.37898,1.05597,0.032504
156.6,9.59893,1.06352,0.0321612
158.9,9.81878,1.07165,0.0331499
161.2,10.0373,1.07464,0.0328305
163.5,10.2578,1.08648,0.0315
165.8,10.4756,1.08006,0.0309288
168.1,10.696,1.09331,0.0305305
170.4,10.9155,1.10489,0.0292222
172.7,11.1326,1.10745,0.0301885
175,11.3541,1.12258,0.0285522
177.3,11.5744,1.13334,0.0291978
179.6,11.7934,1.1392,0.0268991
181.9,12.0115,1.14228,0.02723
184.2,12.2311,1.15649,0.02591
186.5,12.4498,1.15819,0.02459
188.8,12.668,1.17406,0.024573
191.1,12.8864,1.17886,0.0233744
193.4,13.1051,1.18019,0.0236025
195.7,13.3236,1.1786,0.0209709
198,13.5421,1.18986,0.0196531
200.3,13.759,1.1798,0.0194674
202.6,13.978,1.18671,0.0167143
204.9,14.1972,1.18718,0.0145716
207.2,14.4139,1.19148,0.0127221
209.5,14.6305,1.19847,0.0117727
211.8,14.8515,1.18561,0.00976958
214.1,15.0701,1.19205,0.00582016
216.4,15.2892,1.1893,0.00319023
218.7,15.5086,1.18723,0.000546426
221,15.7278,1.19994,-0.0020799
223.3,15.9452,1.20263,-0.00603717
225.6,16.1646,1.19783,-0.00868237
227.9,16.3834,1.21119,-0.0139635
230.2,16.6013,1.21077,-0.0202004
232.5,16.8198,1.22224,-0.025987
234.8,17.0382,1.23133,-0.0336964
237.1,17.2569,1.23817,-0.0395381
239.4,17.4758,1.26117,-0.0482879
241.7,17.6942,1.28933,-0.0591978
244,17.9116,1.30875,-0.068867
246.3,18.1328,1.33517,-0.0795213
248.6,18.3514,1.37172,-0.0928875
250.9,18.5705,1.4192,-0.106222
253.2,18.791,1.45444,-0.1223
255.5,19.01,1.49549,-0.141713
257.8,19.23,1.54593,-0.160731
260.1,19.4491,1.62578,-0.180338
262.4,19.6702,1.72507,-0.205898
264.7,19.8912,1.83751,-0.236234
267,20.1117,1.97628,-0.267839
269.3,20.3324,2.12798,-0.305632
271.6,20.5525,2.30329,-0.348295
273.9,20.7744,2.48413,-0.396863
276.2,20.9963,2.66155,-0.452068
278.5,21.2179,2.8231,-0.515008
280.8,21.4391,2.97765,-0.582562
283.1,21.6609,3.10765,-0.65942
285.4,21.8811,3.21167,-0.740075
287.7,22.1016,3.29189,-0.828751
290,22.3218,3.33914,-0.918967
292.3,22.5423,3.35675,-1.01735
294.6,22.761,3.32622,-1.11331
296.9,22.9804,3.26498,-1.21582
299.2,23.199,3.1345,-1.31386
301.5,23.4162,2.94589,-1.40984
303.8,23.6339,2.69845,-1.50131
306.1,23.8513,2.39354,-1.58505
308.4,24.067,2.07136,-1.65771
310.7,24.2825,1.7536,-1.72139
313,24.5,1.48155,-1.77363
315.3,24.7155,1.29795,-1.81966
317.6,24.9339,1.14284,-1.85817
319.9,25.1534,1.03537,-1.89305
322.2,25.3723,0.952148,-1.92421
324.5,25.5923,0.872851,-1.95349
326.8,25.8108,0.805007,-1.98069
329.1,26.0294,0.733479,-2.00492
331.4,26.248,0.662232,-2.02694
333.7,26.4702,0.588697,-2.04869
336,26.6913,0.516561,-2.07043
338.3,26.9119,0.44634,-2.08783
340.6,27.1322,0.37737,-2.10365
342.9,27.3534,0.319983,-2.12209
345.2,27.5735,0.25037,-2.13547
347.5,27.7939,0.188307,-2.14891
349.8,28.0152,0.132901,-2.16241
352.1,28.2361,0.0786972,-2.1737
354.4,28.4576,0.0327003,-2.18415
356.7,28.6785,-0.0134768,-2.19545
359,28.8995,-0.0532434,-2.20332
361.3,29.1218,-0.0718019,-2.21511
363.6,29.3443,-0.0883415,-2.22329
365.9,29.5651,-0.107902,-2.23204
368.2,29.7879,-0.114283,-2.24112
370.5,30.0107,-0.116595,-2.25008
372.8,30.2328,-0.109359,-2.26025
375.1,30.4557,-0.0897808,-2.26813
377.4,30.6798,-0.0945534,-2.27793
379.7,30.9024,-0.0810712,-2.2894
382,31.1259,-0.0663689,-2.30085
384.3,31.3498,-0.0543125,-2.31161
386.6,31.5724,-0.0375002,-2.32317
388.9,31.7958,-0.0164371,-2.33839
391.2,32.0205,0.000606303,-2.35017
393.5,32.2451,0.00466671,-2.36589
395.8,32.4694,0.017273,-2.38045
398.1,32.6916,0.0199723,-2.39487
400.4,32.9156,0.0325196,-2.41263
402.7,33.1391,0.0248347,-2.42885
405,33.3628,0.0272034,-2.44721
407.3,33.587,0.0133193,-2.46535
409.6,33.8103,0.0104827,-2.4829
411.9,34.0336,-0.00382787,-2.5016
414.2,34.2586,-0.019229,-2.52125
416.5,34.4835,-0.0315915,-2.54025
418.8,34.7079,-0.0492626,-2.55854
421.1,34.9321,-0.0487453,-2.57673
423.4,35.1564,-0.0579678,-2.59578
425.7,35.381,-0.0694868,-2.61415
428,35.6053,-0.0764907,-2.63364
430.3,35.8294,-0.0720412,-2.65329
432.6,36.055,-0.0613842,-2.67279
434.9,36.278,-0.0569647,-2.69266
437.2,36.5054,-0.0501509,-2.7133
439.5,36.7308,-0.0304642,-2.73456
441.8,36.9566,-0.0144371,-2.75711
444.1,37.1832,0.0147174,-2.77807
446.4,37.4088,0.036279,-2.8003
448.7,37.6348,0.0477066,-2.82175
451,37.8603,0.0653933,-2.84308
453.3,38.0872,0.0781384,-2.86432
455.6,38.3126,0.0754908,-2.88504
457.9,38.5375,0.0710542,-2.90511
460.2,38.7645,0.0662571,-2.92287
462.5,38.9904,0.0536786,-2.93958
464.8,39.2167,0.0487996,-2.95674
467.1,39.4426,0.0324914,-2.97331
469.4,39.6692,0.0133579,-2.98783
471.7,39.8954,-0.00122379,-3.00029
474,40.1222,-0.00329374,-3.01169
476.3,40.3475,-0.0284249,-3.02486
478.6,40.5748,-0.0355396,-3.0328
480.9,40.8009,-0.0352862,-3.03989
483.2,41.0268,-0.0369977,-3.04792
485.5,41.2535,-0.0512436,-3.05298
487.8,41.4792,-0.053767,-3.05982
490.1,41.7067,-0.063035,-3.06635
492.4,41.9321,-0.0702029,-3.07018
494.7,42.1613,-0.0762284,-3.07522
497,42.3876,-0.0761986,-3.07913
499.3,42.6125,-0.0850619,-3.08215
501.6,42.8415,-0.092637,-3.0881
503.9,43.0696,-0.0893678,-3.09104
506.2,43.2966,-0.085249,-3.09499
508.5,43.5243,-0.090713,-3.09624
510.8,43.7505,-0.0971812,-3.09764
513.1,43.9788,-0.092293,-3.10159
515.4,44.2047,-0.0971553,-3.10422
517.7,44.4305,-0.102849,-3.10686
520,44.6587,-0.0915231,-3.10817
522.3,44.8875,-0.0947765,-3.10941
524.6,45.1134,-0.0832182,-3.11477
526.9,45.3421,-0.0844434,-3.11476
529.2,45.5689,-0.0790214,-3.1174
531.5,45.796,-0.0889489,-3.12003
533.8,46.0249,-0.0801509,-3.12136
536.1,46.2516,-0.0771703,-3.12336
538.4,46.4796,-0.0748857,-3.12391
540.7,46.7081,-0.0743276,-3.12661
543,46.9353,-0.0719805,-3.12794
545.3,47.1632,-0.0841203,-3.13036
547.6,47.3911,-0.078842,-3.1309
549.9,47.6182,-0.0749212,-3.13287
552.2,47.8474,-0.0784758,-3.13479
554.5,48.0735,-0.0772308,-3.13616
556.8,48.3035,-0.0775067,-3.13745
559.1,48.5313,-0.0699625,-3.13851
561.4,48.7597,-0.0655256,-3.13947
563.7,48.9894,-0.0615738,-3.14078
566,49.2172,-0.0627709,-3.14078
568.3,49.4455,-0.0692947,-3.1421
570.6,49.6744,-0.0615335,-3.14211
572.9,49.902,-0.070063,-3.1444
575.2,50.1312,-0.0601988,-3.14407
577.5,50.3596,-0.0679433,-3.14572
579.8,50.5875,-0.0674628,-3.14704
582.1,50.8158,-0.0715654,-3.14736
584.4,51.0447,-0.0721709,-3.14867
586.7,51.2728,-0.0706339,-3.15099
589,51.5021,-0.0717883,-3.15099
591.3,51.7316,-0.0677637,-3.15299
593.6,51.9602,-0.066506,-3.15362
595.9,52.19,-0.0666516,-3.15628
598.2,52.4194,-0.0635394,-3.15757
600.5,52.6492,-0.0711134,-3.15857
602.8,52.8793,-0.0745188,-3.15988
605.1,53.1085,-0.0766894,-3.1612
607.4,53.3359,-0.0815052,-3.16351
609.7,53.5674,-0.0829428,-3.16417
612,53.7964,-0.0854738,-3.16344
614.3,54.0277,-0.0914196,-3.16647
616.6,54.2561,-0.0947136,-3.16878
618.9,54.488,-0.105362,-3.16746
621.2,54.7168,-0.111866,-3.17142
623.5,54.9476,-0.124946,-3.17141
625.8,55.177,-0.125526,-3.1714
628.1,55.4071,-0.140046,-3.17339
630.4,55.637,-0.141205,-3.17404
632.7,55.8679,-0.15839,-3.17635
635,56.0985,-0.168893,-3.17766
637.3,56.329,-0.185536,-3.17833
639.6,56.5587,-0.19683,-3.17977
641.9,56.7905,-0.194526,-3.17965
644.2,57.0214,-0.192631,-3.17931
646.5,57.2522,-0.196192,-3.18096
648.8,57.4836,-0.201062,-3.18228
651.1,57.7149,-0.205878,-3.18326
653.4,57.947,-0.203367,-3.18566
655.7,58.1785,-0.215455,-3.18722
658,58.4103,-0.218128,-3.18722
660.3,58.6412,-0.227248,-3.19018
662.6,58.8714,-0.231664,-3.19018
664.9,59.1048,-0.233473,-3.19079
667.2,59.3357,-0.245234,-3.19051
669.5,59.5675,-0.248915,-3.19183
671.8,59.7992,-0.260461,-3.19447
674.1,60.032,-0.269213,-3.19446
676.4,60.2636,-0.267629,-3.1971
678.7,60.4958,-0.269308,-3.19842
681,60.7288,-0.26345,-3.19908
683.3,60.9618,-0.27954,-3.20112
685.6,61.1931,-0.274264,-3.20171
687.9,61.4255,-0.284904,-3.20391
690.2,61.6561,-0.298175,-3.20434
692.5,61.8887,-0.303374,-3.20702
694.8,62.1211,-0.319692,-3.20566
697.1,62.3525,-0.315434,-3.20829
699.4,62.5852,-0.323479,-3.20952
701.7,62.817,-0.335346,-3.21126
704,63.0479,-0.334082,-3.21126
706.3,63.2817,-0.339655,-3.21257
708.6,63.5146,-0.34366,-3.21357
710.9,63.7478,-0.356774,-3.2162
713.2,63.982,-0.362964,-3.21752
715.5,64.2147,-0.369865,-3.21715
717.8,64.4483,-0.379602,-3.21851
720.1,64.6808,-0.388695,-3.22081
722.4,64.9131,-0.399294,-3.22259
724.7,65.1464,-0.402097,-3.22377
727,65.3774,-0.41823,-3.22377
729.3,65.6101,-0.415926,-3.22504
731.6,65.8424,-0.423563,-3.22647
733.9,66.0749,-0.427724,-3.22743
736.2,66.3079,-0.424737,-3.22872
738.5,66.5401,-0.426583,-3.22904
740,66.6924,-0.435365,-3.23101