File: 01_Data/Helmet_Shield/STA/N2/10K_min/Helmet_Shield_STA_N2_10KData_240223_R1.csv
Temp./C,Time/min,DSC/(mW/mg),Mass loss/mg
60.0,0.0,0.848116,-0.0221799
62.3,0.2606,0.902047,-0.0222872
64.6,0.514143,0.942585,-0.0223087
66.9,0.764087,0.972528,-0.0221604
69.2,1.00805,1.00096,-0.0234889
71.5,1.25072,1.01469,-0.0248033
73.8,1.49277,1.04532,-0.0248621
76.1,1.73001,1.06462,-0.0254716
78.4,1.97131,1.0778,-0.0247961
80.7,2.20787,1.09142,-0.0261719
83,2.44212,1.09883,-0.0274402
85.3,2.67525,1.09984,-0.0287933
87.6,2.90696,1.10907,-0.0280572
89.9,3.13775,1.10564,-0.0279939
92.2,3.36604,1.10443,-0.0294242
94.5,3.59556,1.11411,-0.0286378
96.8,3.82206,1.1117,-0.0283792
99.1,4.05011,1.11792,-0.0294193
101.4,4.2754,1.11809,-0.0280876
103.7,4.501,1.13278,-0.0294199
106,4.72461,1.13262,-0.0294181
108.3,4.94915,1.1373,-0.02942
110.6,5.17216,1.14236,-0.0291299
112.9,5.39593,1.1564,-0.02943
115.2,5.61907,1.16106,-0.0301065
117.5,5.84487,1.16998,-0.0300804
119.8,6.06819,1.17594,-0.02909
122.1,6.29014,1.18327,-0.0287579
124.4,6.51347,1.19072,-0.0287538
126.7,6.73706,1.18357,-0.03008
129,6.95861,1.19598,-0.02975
131.3,7.18095,1.19865,-0.0300801
133.6,7.40048,1.20388,-0.0314524
135.9,7.62405,1.21334,-0.0300801
138.2,7.84447,1.21439,-0.0290892
140.5,8.0656,1.22084,-0.03041
142.8,8.28642,1.2161,-0.0317316
145.1,8.50647,1.21417,-0.0316323
147.4,8.72556,1.2167,-0.0327194
149.7,8.94492,1.22073,-0.03272
152,9.16433,1.23237,-0.0317306
154.3,9.38508,1.22886,-0.03304
156.6,9.60454,1.24361,-0.0344152
158.9,9.82317,1.24397,-0.0330459
161.2,10.0442,1.24744,-0.03436
163.5,10.2641,1.26187,-0.0343709
165.8,10.4821,1.27178,-0.03437
168.1,10.7017,1.27775,-0.0353393
170.4,10.9213,1.2929,-0.03568
172.7,11.1406,1.30372,-0.03568
175,11.3601,1.31441,-0.0357004
177.3,11.5798,1.32479,-0.0370784
179.6,11.7982,1.32967,-0.0370519
181.9,12.0171,1.34674,-0.03733
184.2,12.2357,1.35363,-0.0383212
186.5,12.4537,1.35835,-0.03964
188.8,12.6728,1.35775,-0.0398287
191.1,12.892,1.37266,-0.04094
193.4,13.1097,1.36927,-0.0411935
195.7,13.329,1.37011,-0.04325
198,13.546,1.37842,-0.0442398
200.3,13.7655,1.38337,-0.0458901
202.6,13.9846,1.38847,-0.0481563
204.9,14.2033,1.39692,-0.0502047
207.2,14.4205,1.40567,-0.0538501
209.5,14.6395,1.41781,-0.0551043
211.8,14.8578,1.41212,-0.0577402
214.1,15.0765,1.41492,-0.0600226
216.4,15.2948,1.42811,-0.0620202
218.7,15.513,1.42374,-0.0653175
221,15.7316,1.41633,-0.0697936
223.3,15.9506,1.41122,-0.0728997
225.6,16.1683,1.41466,-0.0778447
227.9,16.387,1.42296,-0.0807999
230.2,16.6058,1.42208,-0.0873857
232.5,16.823,1.42609,-0.0927536
234.8,17.0409,1.44475,-0.0984933
237.1,17.2587,1.46721,-0.106963
239.4,17.4771,1.4834,-0.115081
241.7,17.6953,1.50396,-0.123798
244,17.9145,1.53323,-0.134027
246.3,18.1336,1.55674,-0.146336
248.6,18.3544,1.59963,-0.160283
250.9,18.5735,1.64322,-0.173313
253.2,18.7934,1.68684,-0.189912
255.5,19.0125,1.72581,-0.20687
257.8,19.2321,1.78367,-0.22651
260.1,19.4516,1.86032,-0.251273
262.4,19.6741,1.96187,-0.274381
264.7,19.8951,2.0805,-0.304127
267,20.1163,2.21408,-0.33687
269.3,20.3368,2.37424,-0.375993
271.6,20.5604,2.549,-0.419904
273.9,20.7822,2.72571,-0.470569
276.2,21.004,2.8997,-0.526216
278.5,21.226,3.05639,-0.590486
280.8,21.447,3.18443,-0.657635
283.1,21.6689,3.30993,-0.735991
285.4,21.8905,3.40874,-0.818683
287.7,22.1107,3.48605,-0.906685
290,22.3325,3.53199,-1.00114
292.3,22.5517,3.55269,-1.09556
294.6,22.7725,3.52891,-1.19543
296.9,22.9912,3.45305,-1.29608
299.2,23.2102,3.33167,-1.39582
301.5,23.4277,3.14222,-1.49033
303.8,23.6437,2.89963,-1.5813
306.1,23.8594,2.59678,-1.66532
308.4,24.0754,2.28082,-1.73824
310.7,24.2901,1.96469,-1.80369
313,24.5048,1.69891,-1.85728
315.3,24.7218,1.49957,-1.90119
317.6,24.94,1.36605,-1.94097
319.9,25.1581,1.25763,-1.97791
322.2,25.3768,1.16513,-2.00889
324.5,25.5952,1.08699,-2.03773
326.8,25.8155,1.0211,-2.06448
329.1,26.0357,0.949069,-2.08991
331.4,26.2543,0.872154,-2.11231
333.7,26.4755,0.80014,-2.13339
336,26.6945,0.72401,-2.15456
338.3,26.9161,0.647259,-2.17351
340.6,27.1365,0.582829,-2.18949
342.9,27.3565,0.519849,-2.20572
345.2,27.5778,0.447571,-2.22006
347.5,27.7997,0.385205,-2.2341
349.8,28.0189,0.327142,-2.24787
352.1,28.24,0.278663,-2.25818
354.4,28.4618,0.230982,-2.2704
356.7,28.6828,0.188419,-2.28197
359,28.9042,0.154882,-2.29038
361.3,29.1263,0.12211,-2.30015
363.6,29.3482,0.106941,-2.30939
365.9,29.572,0.0848096,-2.3192
368.2,29.7935,0.0804812,-2.32699
370.5,30.0159,0.0821477,-2.33596
372.8,30.2395,0.0919034,-2.34454
375.1,30.4613,0.101203,-2.35525
377.4,30.6831,0.101313,-2.36516
379.7,30.9054,0.109326,-2.3736
382,31.1301,0.117041,-2.38517
384.3,31.353,0.128652,-2.39784
386.6,31.5768,0.140683,-2.4103
388.9,31.7995,0.150052,-2.42308
391.2,32.0223,0.165366,-2.43735
393.5,32.2462,0.182664,-2.4525
395.8,32.4699,0.17939,-2.46663
398.1,32.694,0.186902,-2.48302
400.4,32.9191,0.200311,-2.4986
402.7,33.1428,0.193026,-2.51598
405,33.3662,0.19563,-2.53298
407.3,33.5912,0.183171,-2.5507
409.6,33.8146,0.159252,-2.56997
411.9,34.0371,0.142141,-2.59213
414.2,34.2629,0.131908,-2.60993
416.5,34.4847,0.124491,-2.62801
418.8,34.7112,0.105528,-2.64616
421.1,34.9356,0.0888621,-2.66522
423.4,35.1601,0.0761256,-2.68352
425.7,35.3841,0.0751175,-2.70313
428,35.6095,0.0723015,-2.72248
430.3,35.8322,0.0682592,-2.74131
432.6,36.057,0.0784411,-2.76049
434.9,36.2829,0.0849619,-2.78138
437.2,36.5071,0.0977951,-2.80123
439.5,36.7345,0.120768,-2.82384
441.8,36.9597,0.128407,-2.8456
444.1,37.185,0.147466,-2.86666
446.4,37.4115,0.162998,-2.88952
448.7,37.6375,0.183439,-2.91096
451,37.8636,0.191404,-2.93246
453.3,38.0893,0.192748,-2.95352
455.6,38.3154,0.189511,-2.97312
457.9,38.5413,0.188117,-2.99345
460.2,38.766,0.175949,-3.01246
462.5,38.9937,0.158199,-3.02867
464.8,39.2176,0.149467,-3.04498
467.1,39.4453,0.139797,-3.06127
469.4,39.6716,0.119618,-3.07552
471.7,39.897,0.103192,-3.08622
474,40.1219,0.0805166,-3.09893
476.3,40.3473,0.0666452,-3.11061
478.6,40.5739,0.055687,-3.11856
480.9,40.7997,0.0444481,-3.1286
483.2,41.025,0.0284354,-3.13517
485.5,41.2517,0.016645,-3.14082
487.8,41.4774,0.0105106,-3.14672
490.1,41.7035,-0.000150869,-3.15199
492.4,41.9323,-0.00836749,-3.15681
494.7,42.1598,-0.00975474,-3.16204
497,42.3856,-0.0163421,-3.16547
499.3,42.6139,-0.0257225,-3.16943
501.6,42.8397,-0.0361945,-3.17207
503.9,43.0689,-0.0413181,-3.17608
506.2,43.296,-0.0445571,-3.17791
508.5,43.5225,-0.0521583,-3.18139
510.8,43.7503,-0.0608306,-3.18392
513.1,43.9785,-0.0643171,-3.18578
515.4,44.2053,-0.0614536,-3.18787
517.7,44.433,-0.0667379,-3.19181
520,44.6603,-0.0653259,-3.19279
522.3,44.8894,-0.0754443,-3.19447
524.6,45.1134,-0.0701372,-3.1971
526.9,45.3437,-0.0525246,-3.19974
529.2,45.5723,-0.0550363,-3.20171
531.5,45.7995,-0.0552877,-3.20303
533.8,46.0272,-0.0577514,-3.20566
536.1,46.255,-0.046248,-3.20764
538.4,46.4816,-0.0446662,-3.20764
540.7,46.7088,-0.0514024,-3.20898
543,46.936,-0.0533916,-3.21027
545.3,47.1647,-0.0557949,-3.21236
547.6,47.3926,-0.0545352,-3.2129
549.9,47.6204,-0.067168,-3.21422
552.2,47.8478,-0.070272,-3.21686
554.5,48.0767,-0.0711103,-3.21686
556.8,48.3031,-0.0766376,-3.21819
559.1,48.5335,-0.0737278,-3.21818
561.4,48.7603,-0.0766052,-3.22013
563.7,48.9891,-0.086164,-3.22213
566,49.2185,-0.0908095,-3.22246
568.3,49.4471,-0.0899526,-3.22509
570.6,49.6761,-0.0962027,-3.2251
572.9,49.9046,-0.0986739,-3.22543
575.2,50.1321,-0.101835,-3.22674
577.5,50.3618,-0.116866,-3.22806
579.8,50.5899,-0.112089,-3.22871
582.1,50.819,-0.107755,-3.22871
584.4,51.0472,-0.108093,-3.22937
586.7,51.2765,-0.096335,-3.23201
589,51.5063,-0.0962289,-3.23233
591.3,51.7358,-0.0958653,-3.23168
593.6,51.9656,-0.0905034,-3.23574
595.9,52.1959,-0.0850093,-3.23706
598.2,52.4256,-0.0799369,-3.23705
600.5,52.6539,-0.0704919,-3.23706
602.8,52.8857,-0.0655205,-3.2397
605.1,53.117,-0.0690384,-3.23969
607.4,53.3469,-0.0556867,-3.242
609.7,53.5769,-0.061725,-3.242
612,53.8075,-0.059631,-3.24332
614.3,54.0383,-0.058661,-3.24397
616.6,54.2683,-0.0632993,-3.24666
618.9,54.4993,-0.0726617,-3.24793
621.2,54.7299,-0.0688088,-3.24858
623.5,54.9603,-0.0798258,-3.25056
625.8,55.191,-0.0876323,-3.24994
628.1,55.4208,-0.0858936,-3.25185
630.4,55.6519,-0.102233,-3.25396
632.7,55.8817,-0.108052,-3.25352
635,56.1136,-0.110412,-3.25387
637.3,56.3436,-0.118009,-3.25518
639.6,56.5722,-0.115763,-3.25751
641.9,56.8046,-0.121673,-3.2588
644.2,57.0336,-0.122233,-3.25979
646.5,57.2638,-0.123833,-3.26143
648.8,57.4949,-0.121807,-3.26209
651.1,57.7265,-0.110643,-3.26341
653.4,57.9572,-0.0961205,-3.26503
655.7,58.1887,-0.0928231,-3.26583
658,58.4213,-0.0918269,-3.26811
660.3,58.6522,-0.086208,-3.26801
662.6,58.8831,-0.0883043,-3.27131
664.9,59.1121,-0.0776455,-3.27207
667.2,59.3459,-0.0855158,-3.27347
669.5,59.577,-0.0755514,-3.27603
671.8,59.8084,-0.0789006,-3.27569
674.1,60.0406,-0.0870453,-3.27702
676.4,60.2725,-0.0887668,-3.27691
678.7,60.5038,-0.0871025,-3.27966
681,60.736,-0.0816073,-3.28163
683.3,60.9675,-0.0873862,-3.28192
685.6,61.2003,-0.0724325,-3.28328
687.9,61.4319,-0.0715717,-3.28328
690.2,61.6625,-0.0676566,-3.28462
692.5,61.896,-0.0671421,-3.28624
694.8,62.1276,-0.064099,-3.28756
697.1,62.3606,-0.0594429,-3.29019
699.4,62.5925,-0.0555967,-3.29019
701.7,62.8251,-0.044959,-3.29151
704,63.0569,-0.0473029,-3.29283
706.3,63.2892,-0.0574028,-3.29411
708.6,63.5221,-0.0477285,-3.29683
710.9,63.7547,-0.0364136,-3.29721
713.2,63.9862,-0.0349496,-3.2981
715.5,64.2208,-0.0429768,-3.29942
717.8,64.4542,-0.0495347,-3.30073
720.1,64.6871,-0.0496109,-3.30073
722.4,64.9195,-0.0522087,-3.30337
724.7,65.1533,-0.0572686,-3.30336
727,65.3843,-0.0619841,-3.30502
729.3,65.6195,-0.0608039,-3.30765
731.6,65.8523,-0.0755042,-3.30732
733.9,66.0849,-0.0852609,-3.30765
736.2,66.3177,-0.0889519,-3.30925
738.5,66.5508,-0.113436,-3.31061
740,66.7023,-0.114945,-3.30924