File: 01_Data/Turnout_Gear_Shell/STA/N2/10K_min/Turnout_Gear_Shell_STA_N2_10KData_240529_R1.csv
Temp./C,Time/min,DSC/(mW/mg),Mass loss/mg
60.0,0.0,0.801166,-0.0187754
62.7,0.300491,0.877944,-0.0200395
65.4,0.594467,0.930573,-0.0214043
68.1,0.885756,0.992584,-0.0227301
70.8,1.16997,1.04662,-0.0254039
73.5,1.45303,1.10268,-0.0260148
76.2,1.73587,1.15905,-0.0279585
78.9,2.0146,1.20815,-0.0306435
81.6,2.29084,1.25802,-0.03195
84.3,2.56391,1.30717,-0.03459
87,2.83701,1.3449,-0.0362161
89.7,3.10733,1.36843,-0.0407487
92.4,3.37658,1.38215,-0.04118
95.1,3.64376,1.39469,-0.0438075
97.8,3.90916,1.40164,-0.0467913
100.5,4.17303,1.39244,-0.0450064
103.2,4.43679,1.38939,-0.0490463
105.9,4.69851,1.38133,-0.0528011
108.6,4.96216,1.35795,-0.053898
111.3,5.22321,1.34888,-0.05786
114,5.48469,1.31969,-0.0604983
116.7,5.74507,1.29706,-0.0604926
119.4,6.00505,1.27655,-0.0631418
122.1,6.26567,1.24899,-0.0637811
124.8,6.52685,1.22988,-0.0657502
127.5,6.78512,1.21009,-0.0661005
130.2,7.04581,1.18469,-0.06807
132.9,7.30633,1.1627,-0.0693797
135.6,7.56199,1.14006,-0.07037
138.3,7.82354,1.11573,-0.0696535
141,8.08164,1.09626,-0.0691651
143.7,8.33733,1.07633,-0.07269
146.4,8.59884,1.05579,-0.0733399
149.1,8.85502,1.04441,-0.0733727
151.8,9.11297,1.02325,-0.0731088
154.5,9.36972,1.02339,-0.0736048
157.2,9.62809,1.0107,-0.07367
159.9,9.88395,0.993297,-0.0736699
162.6,10.1411,0.989206,-0.07367
165.3,10.3985,0.977405,-0.0736701
168,10.6558,0.978343,-0.0717757
170.7,10.9126,0.968023,-0.0744103
173.4,11.1679,0.970526,-0.07444
176.1,11.4263,0.95687,-0.073773
178.8,11.6822,0.965763,-0.0751002
181.5,11.938,0.961312,-0.0779492
184.2,12.1957,0.965606,-0.07531
186.9,12.4523,0.957428,-0.0756446
189.6,12.7082,0.966269,-0.07466
192.3,12.9651,0.961683,-0.0764159
195,13.2217,0.971288,-0.07565
197.7,13.4769,0.974934,-0.0773202
200.4,13.7339,0.973245,-0.0763382
203.1,13.9901,0.970803,-0.0776221
205.8,14.2469,0.965266,-0.07707
208.5,14.5026,0.969313,-0.0785
211.2,14.7568,0.97368,-0.0758595
213.9,15.0155,0.9763,-0.07718
216.6,15.2715,0.973735,-0.0786081
219.3,15.5286,0.978371,-0.07795
222,15.7848,0.98186,-0.0780673
224.7,16.0389,0.975082,-0.079077
227.4,16.2968,0.972637,-0.0785413
230.1,16.5533,0.972484,-0.080594
232.8,16.81,0.967298,-0.08058
235.5,17.0664,0.97715,-0.0777359
238.2,17.323,0.977155,-0.0812399
240.9,17.5785,0.989116,-0.0815732
243.6,17.8371,0.98487,-0.0830963
246.3,18.0935,0.977947,-0.0844609
249,18.3509,0.981185,-0.0848521
251.7,18.6079,0.973861,-0.08476
254.4,18.8639,0.985931,-0.08476
257.1,19.1208,0.971301,-0.0870575
259.8,19.3775,0.978069,-0.0877197
262.5,19.6348,0.970989,-0.09036
265.2,19.893,0.980097,-0.0910342
267.9,20.1501,0.978658,-0.0923407
270.6,20.4071,0.985705,-0.0935404
273.3,20.6655,0.973023,-0.09618
276,20.9231,0.974978,-0.0985982
278.7,21.1799,0.967757,-0.100838
281.4,21.438,0.978442,-0.1021
284.1,21.6953,0.969167,-0.10342
286.8,21.9518,0.981456,-0.106341
289.5,22.212,0.972711,-0.10759
292.2,22.4697,0.980081,-0.10891
294.9,22.7274,1.00176,-0.111651
297.6,22.9861,0.993542,-0.11298
300.3,23.2456,0.999715,-0.115281
303,23.5048,0.98128,-0.119215
305.7,23.7636,0.972511,-0.12054
308.4,24.0231,0.973288,-0.122769
311.1,24.2817,0.969834,-0.124509
313.8,24.5415,0.967838,-0.127228
316.5,24.8,0.969043,-0.128667
319.2,25.0604,0.96956,-0.131299
321.9,25.32,0.983129,-0.13262
324.6,25.5799,0.975666,-0.132827
327.3,25.8414,0.973422,-0.136345
330,26.1014,0.965351,-0.138649
332.7,26.3624,0.965214,-0.14074
335.4,26.6227,0.963685,-0.143585
338.1,26.8832,0.962342,-0.146011
340.8,27.144,0.957076,-0.150012
343.5,27.4059,0.956117,-0.151282
346.2,27.6665,0.950888,-0.1559
348.9,27.927,0.949621,-0.158532
351.6,28.1886,0.949346,-0.161494
354.3,28.4499,0.939344,-0.164994
357,28.7113,0.936179,-0.169355
359.7,28.9724,0.931352,-0.17335
362.4,29.2333,0.922327,-0.178428
365.1,29.4957,0.906833,-0.182903
367.8,29.7563,0.900936,-0.1862
370.5,30.0175,0.895967,-0.189522
373.2,30.2797,0.888954,-0.19354
375.9,30.5418,0.884723,-0.200117
378.6,30.8047,0.88137,-0.20376
381.3,31.0673,0.883199,-0.20673
384,31.33,0.882619,-0.209525
386.7,31.5916,0.884527,-0.21584
389.4,31.8544,0.885725,-0.220286
392.1,32.1186,0.895263,-0.224192
394.8,32.3814,0.892843,-0.229498
397.5,32.6449,0.894134,-0.235701
400.2,32.9085,0.891559,-0.243519
402.9,33.1733,0.882777,-0.250072
405.6,33.4365,0.874729,-0.256802
408.3,33.7007,0.87418,-0.263831
411,33.964,0.857692,-0.273188
413.7,34.2289,0.846545,-0.280859
416.4,34.4929,0.835078,-0.288834
419.1,34.7556,0.8271,-0.297318
421.8,35.0214,0.813756,-0.301834
424.5,35.2867,0.80395,-0.308757
427.2,35.5514,0.807713,-0.315394
429.9,35.8148,0.813958,-0.319582
432.6,36.081,0.809795,-0.32519
435.3,36.3459,0.823293,-0.329909
438,36.6116,0.832336,-0.33463
440.7,36.8777,0.837782,-0.34155
443.4,37.1435,0.857205,-0.342854
446.1,37.4088,0.871779,-0.349777
448.8,37.6758,0.865006,-0.354554
451.5,37.9417,0.871893,-0.359664
454.2,38.2094,0.872731,-0.364759
456.9,38.4752,0.876654,-0.368922
459.6,38.7413,0.871805,-0.37405
462.3,39.0084,0.871912,-0.37953
465,39.2759,0.871159,-0.386654
467.7,39.5401,0.866484,-0.391575
470.4,39.8064,0.856726,-0.397206
473.1,40.0769,0.846799,-0.403764
475.8,40.3449,0.839814,-0.409159
478.5,40.6113,0.833437,-0.41586
481.2,40.878,0.814874,-0.41992
483.9,41.1463,0.80532,-0.426968
486.6,41.4145,0.796536,-0.431398
489.3,41.679,0.794259,-0.442387
492,41.95,0.812169,-0.447912
494.7,42.2178,0.835332,-0.456971
497.4,42.4851,0.860557,-0.467803
500.1,42.7531,0.885235,-0.479165
502.8,43.0201,0.923156,-0.490754
505.5,43.2895,0.971235,-0.503589
508.2,43.5586,1.0425,-0.520023
510.9,43.8282,1.07679,-0.538034
513.6,44.0968,1.06729,-0.556331
516.3,44.3643,1.0202,-0.573424
519,44.6334,0.964628,-0.589656
521.7,44.9032,0.911113,-0.605121
524.4,45.1704,0.897611,-0.6203
527.1,45.4405,0.920364,-0.633842
529.8,45.7104,0.957089,-0.64809
532.5,45.9796,1.02054,-0.663507
535.2,46.2504,1.09497,-0.680325
537.9,46.518,1.18132,-0.699876
540.6,46.7905,1.29708,-0.718692
543.3,47.0626,1.41001,-0.740161
546,47.3349,1.54054,-0.76792
548.7,47.6067,1.68277,-0.798598
551.4,47.8765,1.82805,-0.831617
554.1,48.1479,1.96102,-0.872322
556.8,48.4199,2.08748,-0.918022
559.5,48.691,2.22883,-0.972902
562.2,48.9644,2.41107,-1.03699
564.9,49.2389,2.61986,-1.1076
567.6,49.5106,2.83694,-1.18981
570.3,49.7838,2.98179,-1.27953
573,50.0542,3.00871,-1.37684
575.7,50.321,2.77092,-1.47279
578.4,50.586,2.15918,-1.55594
581.1,50.8449,1.25468,-1.61825
583.8,51.1061,0.513264,-1.65319
586.5,51.3756,0.198543,-1.67111
589.2,51.6432,0.0871811,-1.68477
591.9,51.9124,0.0373052,-1.69324
594.6,52.1838,0.0122177,-1.70254
597.3,52.4534,0.00608263,-1.70907
600,52.7253,0.00727853,-1.7163
602.7,52.9964,0.0232254,-1.72199
605.4,53.268,0.0364727,-1.72907
608.1,53.5398,0.0513403,-1.73442
610.8,53.8088,-0.00897705,-1.73998
613.5,54.0832,0.0572255,-1.74503
616.2,54.3557,0.0838419,-1.75097
618.9,54.6275,0.0969237,-1.75446
621.6,54.8979,0.121708,-1.7581
624.3,55.1717,0.150442,-1.76335
627,55.4433,0.164547,-1.76852
629.7,55.7158,0.189707,-1.77175
632.4,55.9891,0.215598,-1.77718
635.1,56.2619,0.226255,-1.78295
637.8,56.5338,0.252922,-1.78651
640.5,56.8058,0.269776,-1.79044
643.2,57.0773,0.291487,-1.79705
645.9,57.3506,0.31817,-1.80222
648.6,57.6221,0.326799,-1.80606
651.3,57.8948,0.355856,-1.80992
654,58.1672,0.366949,-1.8134
656.7,58.4395,0.386157,-1.8192
659.4,58.7108,0.402745,-1.82263
662.1,58.9842,0.421542,-1.82725
664.8,59.2564,0.430145,-1.83153
667.5,59.5275,0.448998,-1.83679
670.2,59.8025,0.465796,-1.83945
672.9,60.0753,0.479103,-1.84601
675.6,60.3482,0.489591,-1.84865
678.3,60.6212,0.486184,-1.85424
681,60.8947,0.491705,-1.85802
683.7,61.1681,0.493928,-1.86491
686.4,61.4407,0.49671,-1.86785
689.1,61.7133,0.491388,-1.87192
691.8,61.9864,0.492095,-1.87601
694.5,62.2594,0.482527,-1.87938
697.2,62.5313,0.455986,-1.88487
699.9,62.8046,0.448316,-1.89014
702.6,63.0769,0.439153,-1.8941
705.3,63.3507,0.415472,-1.89965
708,63.6246,0.375389,-1.90331
710.7,63.8974,0.34112,-1.90859
713.4,64.1711,0.300239,-1.91492
716.1,64.4457,0.259384,-1.91792
718.8,64.7186,0.217803,-1.92187
721.5,64.9924,0.170589,-1.92474
724.2,65.2667,0.127121,-1.9319
726.9,65.5406,0.0887141,-1.93406
729.6,65.8141,0.0581396,-1.93948
732.3,66.0885,0.00363727,-1.94477
735,66.3627,0.00807267,-1.94842
737.7,66.637,-0.0456963,-1.95261
740.4,66.9118,-0.0772435,-1.95557
743.1,67.1861,-0.11679,-1.95787
745.8,67.4606,-0.141822,-1.96113
748.5,67.736,-0.169931,-1.96677
751.2,68.0108,-0.199221,-1.97167
753.9,68.2868,-0.238288,-1.97221
756.6,68.5619,-0.258162,-1.97696
759.3,68.8385,-0.276432,-1.97896
762,69.1142,-0.30592,-1.98298
764.7,69.3909,-0.326549,-1.98491
767.4,69.6662,-0.344194,-1.98846
770.1,69.9435,-0.357134,-1.99158
772.8,70.2195,-0.367473,-1.99444
775.5,70.4968,-0.374806,-1.99737
778.2,70.7732,-0.387614,-1.99872
780.9,71.0501,-0.398375,-1.99999
783.6,71.3262,-0.413199,-2.00399
786.3,71.6027,-0.424311,-2.00596
789,71.8788,-0.433108,-2.00882
791.7,72.1555,-0.447231,-2.01114
794.4,72.432,-0.455119,-2.01116
797.1,72.7087,-0.467818,-2.01462
799.8,72.9854,-0.480156,-2.0153
802.5,73.2629,-0.47734,-2.01662
805.2,73.5402,-0.484791,-2.01792
807.9,73.8173,-0.493777,-2.01925
810.6,74.0962,-0.499574,-2.02221
813.3,74.3726,-0.507467,-2.02584
816,74.6514,-0.513591,-2.02717
818.7,74.9284,-0.555542,-2.02649
821.4,75.2074,-0.557372,-2.02815
824.1,75.4855,-0.562242,-2.03012
826.8,75.763,-0.559194,-2.03132
829.5,76.0413,-0.574212,-2.03209
832.2,76.3186,-0.596374,-2.03474
834.9,76.5961,-0.605591,-2.0367
837.6,76.8749,-0.616693,-2.03802
840,77.1217,-0.609379,-2.04066