File: 01_Data/NFPA_1981-2007_SCBA_Lens/STA/N2/10K_min/NFPA_1981-2007_SCBA_Lens_STA_N2_10KData_240102_R1.csv
Temp./C,Time/min,DSC/(mW/mg),Mass loss/mg
60.0,0.0,0.984064,0.00765145
62.3,0.256895,1.02893,0.0035659
64.6,0.50812,1.07745,0.00356024
66.9,0.755342,1.10328,0.00385062
69.2,0.999544,1.14059,0.00328451
71.5,1.24196,1.15825,0.00461972
73.8,1.48351,1.18534,0.0046011
76.1,1.72015,1.20486,0.00593073
78.4,1.95684,1.22768,0.00601374
80.7,2.19451,1.24688,0.00728209
83,2.42548,1.26347,0.00442883
85.3,2.65779,1.29167,0.00591321
87.6,2.8888,1.31342,0.00513815
89.9,3.11844,1.33443,0.00444695
92.2,3.34553,1.35248,0.0059838
94.5,3.57197,1.37446,0.00593
96.8,3.79748,1.38246,0.00572903
99.1,4.02451,1.40045,0.00571289
101.4,4.24915,1.42099,0.00847083
103.7,4.47329,1.42902,0.00699797
106,4.69606,1.4545,0.00769
108.3,4.9195,1.47124,0.00700911
110.6,5.14217,1.49247,0.00708712
112.9,5.36698,1.51116,0.00702983
115.2,5.58849,1.52393,0.00705197
117.5,5.81002,1.53945,0.00703
119.8,6.03323,1.54942,0.00571104
122.1,6.25451,1.56325,0.00702012
124.4,6.47674,1.58242,0.00791149
126.7,6.69783,1.59901,0.00794214
129,6.91939,1.61252,0.00702113
131.3,7.14071,1.61881,0.00834558
133.6,7.3592,1.63162,0.0062082
135.9,7.58198,1.64728,0.00505
138.2,7.80239,1.68006,0.00705405
140.5,8.02276,1.69626,0.00966088
142.8,8.2407,1.73779,0.00833747
145.1,8.46474,1.79677,0.00835
147.4,8.684,1.87898,0.00835005
149.7,8.90455,1.93614,0.00834296
152,9.12358,1.93636,0.00833984
154.3,9.34152,1.92419,0.00835166
156.6,9.56145,1.9295,0.00834962
158.9,9.78058,1.93291,0.0096543
161.2,9.99982,1.93427,0.00864527
163.5,10.2172,1.951,0.00703045
165.8,10.4369,1.96487,0.00736158
168.1,10.6565,1.97321,0.0099652
170.4,10.875,1.98188,0.0103218
172.7,11.0935,1.99075,0.00899629
175,11.313,2.01157,0.0112217
177.3,11.5315,2.01309,0.00868019
179.6,11.7508,2.02244,0.00907645
181.9,11.9683,2.0311,0.00934969
184.2,12.1878,2.03378,0.00935131
186.5,12.4061,2.03827,0.00933003
188.8,12.6239,2.04768,0.0106459
191.1,12.8416,2.04682,0.0100023
193.4,13.0603,2.0503,0.0106578
195.7,13.2791,2.05301,0.00854374
198,13.4964,2.0642,0.0103299
200.3,13.7141,2.07532,0.0106497
202.6,13.9337,2.07638,0.0109834
204.9,14.1515,2.09337,0.0110899
207.2,14.3693,2.10009,0.00943188
209.5,14.5878,2.11347,0.00950759
211.8,14.8062,2.12049,0.0101718
214.1,15.0241,2.12692,0.01406
216.4,15.2424,2.13893,0.0114274
218.7,15.4609,2.13151,0.0127303
221,15.6778,2.14122,0.0101
223.3,15.8979,2.15708,0.01142
225.6,16.1134,2.15597,0.011425
227.9,16.3332,2.16002,0.0113222
230.2,16.5538,2.17029,0.0114182
232.5,16.772,2.17094,0.01142
234.8,16.9908,2.17744,0.0120799
237.1,17.2087,2.18688,0.01109
239.4,17.4274,2.18604,0.0114201
241.7,17.6458,2.2002,0.0106585
244,17.8653,2.20976,0.01109
246.3,18.0839,2.21053,0.0110119
248.6,18.3019,2.21074,0.01142
250.9,18.5199,2.2141,0.00936836
253.2,18.7387,2.2285,0.0100981
255.5,18.9545,2.22946,0.0107598
257.8,19.175,2.24161,0.01142
260.1,19.3931,2.24642,0.00944949
262.4,19.611,2.25073,0.0120644
264.7,19.8301,2.25678,0.0124769
267,20.0489,2.26199,0.01241
269.3,20.2678,2.26528,0.0124431
271.6,20.4874,2.27026,0.0117519
273.9,20.7057,2.27762,0.01142
276.2,20.9264,2.28113,0.0114333
278.5,21.1454,2.28853,0.0117393
280.8,21.365,2.29162,0.01043
283.1,21.5845,2.29695,0.011408
285.4,21.8052,2.3004,0.01109
287.7,22.0257,2.30597,0.01109
290,22.2447,2.30603,0.0110888
292.3,22.4655,2.31416,0.0120948
294.6,22.6844,2.32359,0.0116955
296.9,22.9048,2.31931,0.0133899
299.2,23.1255,2.32711,0.0106752
301.5,23.345,2.32799,0.01208
303.8,23.566,2.33351,0.0121614
306.1,23.7856,2.32604,0.0124102
308.4,24.0051,2.32222,0.0124385
310.7,24.2262,2.33164,0.0133721
313,24.4477,2.33621,0.01076
315.3,24.6677,2.32916,0.00944098
317.6,24.8888,2.32993,0.01076
319.9,25.1108,2.33031,0.0127375
322.2,25.3319,2.34678,0.0100902
324.5,25.5533,2.34775,0.00878437
326.8,25.7745,2.34594,0.00812
329.1,25.9973,2.35843,0.00811215
331.4,26.2196,2.35348,0.00911002
333.7,26.4402,2.3561,0.00779
336,26.6619,2.35982,0.00779378
338.3,26.8836,2.36073,0.00842033
340.6,27.1057,2.35419,0.00878
342.9,27.3288,2.35682,0.00712922
345.2,27.5503,2.35383,0.00450157
347.5,27.7729,2.3641,0.00581972
349.8,27.9955,2.35451,0.00188281
352.1,28.2192,2.35212,0.00418067
354.4,28.4396,2.35256,0.00642532
356.7,28.6644,2.3502,0.00555644
359,28.8867,2.34152,0.00252187
361.3,29.1109,2.34212,0.00255756
363.6,29.3349,2.34148,0.00318048
365.9,29.5582,2.34319,0.000879835
368.2,29.7818,2.35027,0.00220613
370.5,30.0055,2.34272,0.0018616
372.8,30.2292,2.34734,-0.000759999
375.1,30.4526,2.3444,-0.00339999
377.4,30.6769,2.34931,-0.00333824
379.7,30.9015,2.34254,-0.00472543
382,31.1238,2.33484,-0.00450513
384.3,31.3501,2.33072,-0.00601193
386.6,31.5749,2.32074,-0.00734844
388.9,31.7994,2.32495,-0.00867531
391.2,32.0239,2.32671,-0.00867998
393.5,32.2487,2.32431,-0.00998849
395.8,32.4736,2.33201,-0.01262
398.1,32.6975,2.31326,-0.0152584
400.4,32.9232,2.31623,-0.0191755
402.7,33.1485,2.30801,-0.0205262
405,33.3736,2.29585,-0.0211822
407.3,33.5995,2.27628,-0.0264077
409.6,33.8234,2.27712,-0.0277449
411.9,34.0511,2.25211,-0.0317169
414.2,34.2757,2.23108,-0.0353257
416.5,34.5014,2.2261,-0.042482
418.8,34.7276,2.20648,-0.0497814
421.1,34.9533,2.19107,-0.0560904
423.4,35.1791,2.16854,-0.06419
425.7,35.4053,2.14541,-0.0719012
428,35.6294,2.11453,-0.0825893
430.3,35.8549,2.09333,-0.0928581
432.6,36.0808,2.06651,-0.105966
434.9,36.3076,2.04006,-0.120707
437.2,36.533,2.03135,-0.137262
439.5,36.7603,2.03641,-0.154284
441.8,36.9871,2.02687,-0.177027
444.1,37.2119,1.9784,-0.202553
446.4,37.4385,1.98624,-0.231802
448.7,37.6651,1.96892,-0.264841
451,37.8931,1.99685,-0.303894
453.3,38.1191,2.04865,-0.348555
455.6,38.3472,2.0729,-0.405732
457.9,38.5721,2.10853,-0.467877
460.2,38.8031,2.27281,-0.543612
462.5,39.0308,2.28462,-0.627609
464.8,39.2585,2.29771,-0.720327
467.1,39.4858,2.30325,-0.82121
469.4,39.7136,2.23756,-0.922454
471.7,39.9426,2.3141,-1.03426
474,40.1699,2.33114,-1.15244
476.3,40.3986,2.39857,-1.27451
478.6,40.6274,2.37309,-1.40256
480.9,40.8552,2.35858,-1.5346
483.2,41.084,2.37244,-1.66745
485.5,41.3129,2.34678,-1.80121
487.8,41.5408,2.31919,-1.93286
490.1,41.769,2.26093,-2.05958
492.4,41.9964,2.17653,-2.18278
494.7,42.2233,2.09843,-2.29676
497,42.4517,1.99203,-2.40171
499.3,42.6783,1.86777,-2.49668
501.6,42.9046,1.77714,-2.57464
503.9,43.1335,1.66751,-2.64689
506.2,43.3608,1.58562,-2.71093
508.5,43.5883,1.51046,-2.76642
510.8,43.8156,1.44651,-2.81054
513.1,44.0451,1.39473,-2.84807
515.4,44.2722,1.35431,-2.87863
517.7,44.5015,1.31304,-2.9028
520,44.7301,1.28597,-2.92383
522.3,44.9591,1.27661,-2.94234
524.6,45.1879,1.26047,-2.95691
526.9,45.4176,1.24253,-2.96843
529.2,45.647,1.23834,-2.9799
531.5,45.8769,1.22084,-2.99101
533.8,46.1063,1.20806,-3.00163
536.1,46.3365,1.19537,-3.00747
538.4,46.5667,1.19911,-3.01647
540.7,46.7977,1.19422,-3.02468
543,47.0273,1.18655,-3.02784
545.3,47.2574,1.17364,-3.03435
547.6,47.4879,1.17863,-3.04015
549.9,47.7183,1.17724,-3.0448
552.2,47.9481,1.16976,-3.0483
554.5,48.1768,1.16129,-3.05525
556.8,48.4081,1.17039,-3.06316
559.1,48.6382,1.16016,-3.06744
561.4,48.8691,1.17193,-3.07024
563.7,49.0996,1.16699,-3.07521
566,49.331,1.17896,-3.08052
568.3,49.5615,1.18402,-3.08316
570.6,49.7925,1.18249,-3.08744
572.9,50.0231,1.18859,-3.0927
575.2,50.2552,1.20106,-3.09644
577.5,50.4866,1.20895,-3.10078
579.8,50.7183,1.22471,-3.10578
582.1,50.948,1.22806,-3.10709
584.4,51.1802,1.23458,-3.11038
586.7,51.4101,1.25275,-3.11553
589,51.643,1.25713,-3.11994
591.3,51.8751,1.2673,-3.1212
593.6,52.1069,1.27719,-3.12652
595.9,52.3384,1.27137,-3.12653
598.2,52.5704,1.28272,-3.12947
600.5,52.8029,1.29957,-3.13344
602.8,53.0345,1.30989,-3.13598
605.1,53.2679,1.3395,-3.14008
607.4,53.4999,1.36898,-3.14255
609.7,53.732,1.38893,-3.1427
612,53.9653,1.40982,-3.14932
614.3,54.1974,1.42263,-3.15189
616.6,54.4294,1.41758,-3.15187
618.9,54.6618,1.41834,-3.15334
621.2,54.8933,1.42493,-3.15616
623.5,55.1261,1.42877,-3.15781
625.8,55.3571,1.43471,-3.16047
628.1,55.5896,1.43248,-3.16155
630.4,55.8224,1.40858,-3.16831
632.7,56.0542,1.41014,-3.16572
635,56.2877,1.39836,-3.16835
637.3,56.5198,1.3915,-3.16967
639.6,56.752,1.38109,-3.17099
641.9,56.9841,1.37699,-3.1722
644.2,57.2178,1.3775,-3.17792
646.5,57.45,1.36568,-3.17837
648.8,57.6825,1.3551,-3.18077
651.1,57.9151,1.35352,-3.1815
653.4,58.149,1.36095,-3.18373
655.7,58.3817,1.35761,-3.1847
658,58.6144,1.35796,-3.18606
660.3,58.8489,1.36394,-3.18859
662.6,59.0826,1.36881,-3.18921
664.9,59.3173,1.36536,-3.19086
667.2,59.5511,1.35737,-3.1948
669.5,59.7862,1.3545,-3.19612
671.8,60.0205,1.34417,-3.19876
674.1,60.2514,1.35071,-3.19949
676.4,60.4864,1.36566,-3.19876
678.7,60.7205,1.36024,-3.20058
681,60.9537,1.37419,-3.20248
683.3,61.1881,1.38149,-3.20568
685.6,61.4219,1.38624,-3.20617
687.9,61.6557,1.37975,-3.2093
690.2,61.8899,1.36656,-3.20787
692.5,62.1256,1.36781,-3.21181
694.8,62.3579,1.37987,-3.21182
697.1,62.5938,1.38352,-3.21053
699.4,62.8303,1.38562,-3.21191
701.7,63.0654,1.37123,-3.21447
704,63.2995,1.36671,-3.2171
706.3,63.5343,1.36233,-3.21973
708.6,63.7701,1.36677,-3.22006
710.9,64.0043,1.37706,-3.22142
713.2,64.2406,1.37788,-3.21873
715.5,64.4758,1.37136,-3.22403
717.8,64.7114,1.3779,-3.22401
720.1,64.947,1.39057,-3.224
722.4,65.1839,1.39825,-3.22631
724.7,65.4197,1.39197,-3.22827
727,65.6557,1.39656,-3.22863
729.3,65.8919,1.39706,-3.23125
731.6,66.1279,1.38992,-3.23113
733.9,66.3626,1.38128,-3.23324
736.2,66.5993,1.37803,-3.23299
738.5,66.8356,1.37313,-3.23561
740,66.9899,1.37145,-3.23685