File: 01_Data/NFPA_1981-2007_SCBA_Lens/STA/N2/10K_min/NFPA_1981-2007_SCBA_Lens_STA_N2_10KData_240103_R2.csv
Temp./C,Time/min,DSC/(mW/mg),Mass loss/mg
60.0,0.0,0.761111,0.000809334
62.3,0.257273,0.807455,0.00165788
64.6,0.509781,0.83507,0.00172845
66.9,0.75644,0.870975,0.00175555
69.2,0.997714,0.883289,0.00174921
71.5,1.24235,0.895078,0.00176008
73.8,1.48292,0.91181,0.00307353
76.1,1.7204,0.931931,0.00295536
78.4,1.95728,0.946707,0.00323554
80.7,2.19192,0.966423,0.00438966
83,2.42505,0.977262,0.00241293
85.3,2.65707,0.986539,0.00446583
87.6,2.88713,1.0074,0.00307001
89.9,3.11603,1.01447,0.0031624
92.2,3.34355,1.03414,0.00438137
94.5,3.57043,1.04988,0.00309158
96.8,3.7969,1.06193,0.0034463
99.1,4.02174,1.07297,0.00306365
101.4,4.24757,1.09752,0.00339464
103.7,4.47114,1.10777,0.00439008
106,4.69459,1.1143,0.00307117
108.3,4.91774,1.12103,0.00307013
110.6,5.14144,1.12697,0.00306938
112.9,5.36278,1.14833,0.00176019
115.2,5.58594,1.15311,0.00306805
117.5,5.80742,1.1671,0.00306946
119.8,6.02961,1.18498,0.00175242
122.1,6.25202,1.19382,0.0020941
124.4,6.47412,1.20972,0.00240764
126.7,6.69458,1.21191,0.000429388
129,6.91543,1.23307,0.00175648
131.3,7.13596,1.23713,0.00174984
133.6,7.35756,1.24708,0.00176027
135.9,7.57933,1.25235,0.00180209
138.2,7.79842,1.26907,0.00175257
140.5,8.01804,1.29216,0.00175003
142.8,8.23887,1.31485,0.00306722
145.1,8.45833,1.37067,0.00267102
147.4,8.67837,1.44079,0.00207996
149.7,8.89979,1.50378,0.00307
152,9.11912,1.48568,0.00351369
154.3,9.33692,1.47565,0.0030799
156.6,9.55747,1.47378,0.00307011
158.9,9.77627,1.48185,0.00439013
161.2,9.99459,1.48656,0.00255032
163.5,10.2145,1.48021,0.00438266
165.8,10.4318,1.49516,0.00439
168.1,10.6537,1.49542,0.00438989
170.4,10.871,1.50478,0.00435992
172.7,11.0898,1.50222,0.00406017
175,11.3086,1.50929,0.00453557
177.3,11.5257,1.51331,0.00340609
179.6,11.7442,1.50853,0.00297328
181.9,11.963,1.52045,0.00329386
184.2,12.1815,1.52572,0.00338571
186.5,12.3979,1.52417,0.00438955
188.8,12.6185,1.52608,0.00311995
191.1,12.8362,1.53323,0.00409188
193.4,13.0544,1.54203,0.0027407
195.7,13.2736,1.53601,0.00307016
198,13.492,1.5383,0.00304673
200.3,13.7092,1.54268,0.00407
202.6,13.9278,1.54584,0.00309151
204.9,14.1459,1.54547,0.00307
207.2,14.364,1.54472,0.00411422
209.5,14.5819,1.55235,0.00439
211.8,14.8008,1.55598,0.00407259
214.1,15.0202,1.55318,0.00275
216.4,15.2373,1.55524,0.00302883
218.7,15.4569,1.55409,0.00307015
221,15.6746,1.56436,0.00307086
223.3,15.8917,1.56539,0.00201619
225.6,16.1119,1.56077,0.00176
227.9,16.3304,1.56907,0.00439041
230.2,16.5485,1.57214,0.00307722
232.5,16.7675,1.56398,0.00242768
234.8,16.9857,1.56869,0.00108976
237.1,17.2047,1.56813,0.00339968
239.4,17.4222,1.57121,0.00208048
241.7,17.6408,1.57868,0.00242001
244,17.8591,1.56897,0.00241998
246.3,18.0769,1.57658,0.00373003
248.6,18.2954,1.56625,0.000979962
250.9,18.514,1.57032,0.00196706
253.2,18.7313,1.57033,0.00263018
255.5,18.9511,1.5732,0.00233203
257.8,19.1684,1.58189,0.00296
260.1,19.3884,1.58306,0.00198
262.4,19.6076,1.5906,0.00296486
264.7,19.8274,1.58666,0.00297056
267,20.0467,1.58799,0.00297002
269.3,20.2652,1.57981,0.00264
271.6,20.4852,1.59084,0.00297373
273.9,20.705,1.58056,0.00294842
276.2,20.9248,1.57579,0.00361022
278.5,21.1439,1.57723,0.00295182
280.8,21.3639,1.57152,0.00196997
283.1,21.5838,1.5789,0.00231015
285.4,21.8026,1.57542,0.00231
287.7,22.0224,1.58733,0.00230916
290,22.2417,1.57696,0.00229926
292.3,22.4614,1.5784,0.00293946
294.6,22.6825,1.57231,0.00198
296.9,22.9032,1.56774,0.00198
299.2,23.1226,1.5722,0.00263
301.5,23.3433,1.57537,0.00395004
303.8,23.5627,1.57258,0.00263
306.1,23.7839,1.57754,0.00263
308.4,24.0041,1.57941,0.00263
310.7,24.2244,1.57105,0.00176559
313,24.445,1.57531,0.00328998
315.3,24.6678,1.56645,0.00262992
317.6,24.8888,1.55355,0.00131
319.9,25.1096,1.55226,0.00131173
322.2,25.3319,1.55349,0.00229347
324.5,25.5531,1.54871,0.00162327
326.8,25.7746,1.54667,0.00129494
329.1,25.9971,1.53974,0.00164
331.4,26.219,1.53318,0.000330926
333.7,26.4403,1.52778,-7.91832e-11
336,26.6632,1.5293,0.00132
338.3,26.8854,1.52777,-3.79991e-10
340.6,27.1077,1.51638,-0.00131991
342.9,27.3302,1.51291,-0.000662055
345.2,27.5528,1.51403,-0.00132
347.5,27.775,1.50783,-0.00165
349.8,27.9983,1.50805,-0.00160896
352.1,28.2215,1.49987,-0.00296
354.4,28.4414,1.49874,-0.00361979
356.7,28.6679,1.49562,-0.00296
359,28.8908,1.48482,-0.00352926
361.3,29.1152,1.48376,-0.0043975
363.6,29.3361,1.47802,-0.00494
365.9,29.5617,1.4829,-0.00362021
368.2,29.7845,1.48382,-0.00628062
370.5,30.0079,1.47349,-0.00561339
372.8,30.23,1.46563,-0.00626078
375.1,30.4568,1.46548,-0.00790001
377.4,30.6808,1.45954,-0.00922
379.7,30.9042,1.4594,-0.0105399
382,31.1291,1.45314,-0.01054
384.3,31.3547,1.4449,-0.0120624
386.6,31.5783,1.4451,-0.0131509
388.9,31.8034,1.43262,-0.01449
391.2,32.0281,1.42829,-0.014491
393.5,32.2528,1.41775,-0.0158101
395.8,32.478,1.40898,-0.0171881
398.1,32.7027,1.39548,-0.0197593
400.4,32.9284,1.3883,-0.0223801
402.7,33.1542,1.3697,-0.0250292
405,33.3797,1.36011,-0.0263488
407.3,33.6041,1.33534,-0.0289808
409.6,33.8299,1.32352,-0.0316035
411.9,34.0561,1.30713,-0.036795
414.2,34.2824,1.29415,-0.0398684
416.5,34.5071,1.27191,-0.0462805
418.8,34.7326,1.24641,-0.0528183
421.1,34.9583,1.22544,-0.0584445
423.4,35.1826,1.19896,-0.0660378
425.7,35.4085,1.16724,-0.0755265
428,35.6332,1.12896,-0.0846674
430.3,35.8574,1.10188,-0.0964202
432.6,36.085,1.07072,-0.108925
434.9,36.311,1.03317,-0.122797
437.2,36.5384,1.01207,-0.138025
439.5,36.7645,0.995795,-0.156464
441.8,36.9912,0.983202,-0.176588
444.1,37.2173,0.9698,-0.202183
446.4,37.4443,0.969109,-0.230671
448.7,37.6699,0.95222,-0.264689
451,37.8997,1.00561,-0.303368
453.3,38.1262,1.06267,-0.354669
455.6,38.3543,1.12005,-0.412343
457.9,38.5825,1.10945,-0.476825
460.2,38.8097,1.15162,-0.551283
462.5,39.0374,1.17519,-0.631539
464.8,39.2674,1.2649,-0.724192
467.1,39.4936,1.18063,-0.826558
469.4,39.7216,1.19557,-0.926734
471.7,39.9492,1.23551,-1.03769
474,40.1749,1.14709,-1.15302
476.3,40.4045,1.18074,-1.27143
478.6,40.632,1.23679,-1.39244
480.9,40.8621,1.25873,-1.52412
483.2,41.0907,1.25896,-1.6582
485.5,41.3194,1.25198,-1.78986
487.8,41.5469,1.22887,-1.92109
490.1,41.7749,1.20031,-2.05101
492.4,42.0023,1.12117,-2.17396
494.7,42.2286,1.03489,-2.28902
497,42.4556,0.93041,-2.3957
499.3,42.6825,0.810978,-2.49083
501.6,42.9093,0.700517,-2.57531
503.9,43.1376,0.600665,-2.64968
506.2,43.365,0.518735,-2.71304
508.5,43.5929,0.443006,-2.76732
510.8,43.821,0.379906,-2.81403
513.1,44.0486,0.333746,-2.85302
515.4,44.2776,0.300704,-2.88464
517.7,44.5074,0.255768,-2.9088
520,44.7357,0.231534,-2.92941
522.3,44.9647,0.209384,-2.94747
524.6,45.1949,0.188639,-2.96281
526.9,45.4253,0.190294,-2.97489
529.2,45.6529,0.179451,-2.98829
531.5,45.8835,0.160836,-2.99885
533.8,46.1139,0.147747,-3.00771
536.1,46.3432,0.145224,-3.01544
538.4,46.5747,0.131789,-3.02442
540.7,46.8041,0.131382,-3.03002
543,47.0345,0.107868,-3.0366
545.3,47.2647,0.109975,-3.04365
547.6,47.4954,0.108043,-3.04813
549.9,47.7264,0.0996638,-3.05407
552.2,47.9557,0.0964029,-3.05953
554.5,48.1864,0.0885702,-3.06439
556.8,48.4157,0.086014,-3.06889
559.1,48.6473,0.0860584,-3.07412
561.4,48.8765,0.0951892,-3.07817
563.7,49.1073,0.0881143,-3.0817
566,49.34,0.0907421,-3.0881
568.3,49.5711,0.0928854,-3.09139
570.6,49.8021,0.08459,-3.09535
572.9,50.0337,0.0863723,-3.09943
575.2,50.2658,0.0718435,-3.10377
577.5,50.4982,0.072185,-3.10701
579.8,50.7306,0.0649854,-3.11092
582.1,50.9618,0.064061,-3.11489
584.4,51.1941,0.0661606,-3.11884
586.7,51.4253,0.0648631,-3.12279
589,51.6568,0.0561628,-3.12642
591.3,51.8894,0.0624892,-3.12806
593.6,52.1215,0.0497356,-3.13168
595.9,52.3538,0.0774092,-3.13571
598.2,52.5852,0.0820321,-3.13914
600.5,52.8184,0.0782558,-3.14218
602.8,53.0495,0.0664281,-3.14387
605.1,53.2819,0.063047,-3.1478
607.4,53.5135,0.069285,-3.14979
609.7,53.7442,0.0680328,-3.15261
612,53.9757,0.0718125,-3.15431
614.3,54.2073,0.080154,-3.15663
616.6,54.4408,0.0921962,-3.15715
618.9,54.6723,0.0892577,-3.16101
621.2,54.9048,0.101442,-3.16413
623.5,55.1382,0.113407,-3.16626
625.8,55.373,0.118655,-3.16889
628.1,55.606,0.117449,-3.17153
630.4,55.84,0.116226,-3.17153
632.7,56.0726,0.118823,-3.17417
635,56.307,0.123234,-3.17551
637.3,56.5385,0.106164,-3.17944
639.6,56.7729,0.112536,-3.18074
641.9,57.0048,0.110135,-3.18142
644.2,57.2377,0.09066,-3.18218
646.5,57.4694,0.0915982,-3.18471
648.8,57.7016,0.0780406,-3.18605
651.1,57.9346,0.0663961,-3.18735
653.4,58.1773,0.0596647,-3.18866
655.7,58.4103,0.0556895,-3.19096
658,58.6444,0.0421822,-3.19361
660.3,58.8771,0.031709,-3.19557
662.6,59.1111,0.0300528,-3.19618
664.9,59.345,0.018984,-3.19753
667.2,59.5786,0.0123717,-3.19978
669.5,59.8123,0.0173494,-3.20249
671.8,60.046,0.00260434,-3.20283
674.1,60.28,0.00574717,-3.20505
676.4,60.5129,0.0166523,-3.20645
678.7,60.7476,0.0269553,-3.20697
681,60.9811,0.0255831,-3.20909
683.3,61.2142,0.0348207,-3.20908
685.6,61.4479,0.0272422,-3.21166
687.9,61.6821,0.0343992,-3.21435
690.2,61.9171,0.0368532,-3.21434
692.5,62.152,0.0433275,-3.21566
694.8,62.3857,0.0480982,-3.21705
697.1,62.6206,0.0562626,-3.21853
699.4,62.8555,0.0581169,-3.21962
701.7,63.0906,0.0597233,-3.22193
704,63.3243,0.0539859,-3.22258
706.3,63.5595,0.0640613,-3.22522
708.6,63.794,0.0624237,-3.22518
710.9,64.0285,0.0816553,-3.22751
713.2,64.2638,0.096169,-3.22851
715.5,64.4977,0.10786,-3.22884
717.8,64.7352,0.115367,-3.23114
720.1,64.9711,0.116664,-3.23246
722.4,65.2076,0.112817,-3.23378
724.7,65.4431,0.122469,-3.2331
727,65.6802,0.12823,-3.23477
729.3,65.9172,0.130552,-3.23609
731.6,66.1535,0.132156,-3.23843
733.9,66.3898,0.135437,-3.23908
736.2,66.6256,0.139278,-3.24004
738.5,66.8621,0.151738,-3.23971
740,67.0159,0.150149,-3.24234