File: 01_Data/Corrugated_Cardboard/Cone/Corrugated_Cardboard_Cone_HF25Scan_250211_R3.csv
Names,Time,Stack TC,Smoke TC,Exh Press,Smoke Comp,Smoke Meas,CO Meter,CO2 Meter,O2 Meter,Sample Mass,Ext Coeff,Start Test,Flame Verif
Chan Gain,,500,500,1,1,1,1,1,1,1,1,1.0,1.0
Offset,,0,0,0.131183,0,0,0,0,0,0,0,0.0,0.0
Gain,,1,1,25.011,13.1923,20.2122,1,1,1,1.00092,1.05074,1.0,1.0
Units,sec,C,C,Pa,%,%,%,%,%,g,/m,,
Baseline,,36.9171,37.9564,158.728,99.8701,105.813,0.000317553,0.0423914,20.9475,-434.65,-0.532814,,
9,2,36.1432,37.5336,158.797,99.9608,106.015,0.000499542,0.0430399,20.9495,144.053,-0.541957,0.0,0.0
18,4.25,36.4176,37.3415,156.779,99.9403,105.933,0.000496213,0.0431737,20.9489,143.963,-0.536716,0.0,0.0
27,6.5,36.5123,37.3602,156.95,99.9145,105.893,0.000422913,0.0433084,20.9486,144.003,-0.535657,0.0,0.0
36,8.75,36.1946,37.4408,158.076,99.8662,105.817,0.000433498,0.0432148,20.9486,143.963,-0.533508,0.0,0.0
45,11,36.5564,37.1871,159.187,99.7986,105.756,0.000509289,0.0434606,20.9485,143.903,-0.534432,0.0,0.0
54,13.25,36.569,37.5187,156.495,99.7692,105.669,0.000628377,0.0446882,20.9474,143.913,-0.529565,0.0,0.0
63,15.5,36.4942,37.7704,158.414,99.7466,105.727,0.000774989,0.0485351,20.9448,143.903,-0.536703,0.0,0.0
72,17.75,35.9009,38.0252,157.629,99.6826,105.568,0.000908596,0.0536156,20.938,143.853,-0.528683,0.0,0.0
81,20,36.4399,37.8711,159.534,99.6697,105.292,0.000978477,0.0578328,20.931,143.863,-0.505823,0.0,0.0
90,22.25,36.1167,37.9978,160.193,99.6492,104.805,0.00100064,0.0605713,20.926,143.803,-0.464967,0.0,0.0
99,24.5,36.5375,37.841,161.036,99.6077,104.135,0.000976871,0.0629118,20.9225,143.783,-0.409703,0.0,0.0
108,26.75,36.6205,38.2201,156.192,99.5506,103.898,0.000937242,0.063729,20.921,143.663,-0.394005,0.0,0.0
117,29,36.6925,38.2782,157.361,99.5763,103.006,0.000960768,0.0636294,20.9204,143.653,-0.312154,0.0,0.0
126,31.25,37.0015,40.0095,139.3,99.584,102.09,0.00122783,0.0633291,20.9206,143.262,-0.229061,0.0,1.0
135,33.5,38.514,46.2966,143.791,99.5707,100.682,0.00157904,0.0633455,20.9217,142.892,-0.102324,0.0,1.0
144,35.75,40.6685,50.8083,142.219,99.5735,101.043,0.00183919,0.0629766,20.9221,142.532,-0.135038,0.0,1.0
153,38,42.2205,53.6322,146.222,99.6186,103.051,0.00232784,0.0658462,20.922,142.251,-0.31227,0.0,0.0
162,40.25,43.7607,55.4314,149.273,99.673,103.261,0.002884,0.114678,20.9118,142.031,-0.325926,0.0,0.0
171,42.5,44.2014,56.2305,147.759,99.6677,104.52,0.00319678,0.215046,20.8525,141.821,-0.438158,0.0,0.0
180,44.75,44.757,55.786,148.495,99.7269,104.175,0.0033765,0.342109,20.7051,141.721,-0.40223,0.0,0.0
189,47,44.6931,56.1085,150.991,99.7857,104.481,0.00330736,0.388487,20.584,141.571,-0.423829,0.0,0.0
198,49.25,45.1675,55.303,148.964,99.8175,105.117,0.00306487,0.37506,20.5502,141.471,-0.476822,0.0,0.0
207,51.5,44.9238,54.241,153.029,99.867,104.985,0.00275825,0.339009,20.569,141.281,-0.460669,0.0,0.0
216,53.75,45.0832,53.6759,148.721,99.9081,105.028,0.00251405,0.298224,20.6139,141.14,-0.46067,0.0,0.0
225,56,44.853,52.8658,147.119,99.9745,104.716,0.00253346,0.264616,20.6585,141.05,-0.427113,0.0,0.0
234,58.25,45.1029,52.901,151.538,99.9745,105,0.00300757,0.239068,20.6921,140.82,-0.452053,0.0,0.0
243,60.5,45.2991,53.0978,150.345,100.002,104.336,0.0037,0.220258,20.7233,140.64,-0.391047,0.0,0.0
252,62.75,46.0542,54.0145,143.763,100.004,104.491,0.00434341,0.208682,20.7452,140.49,-0.404511,0.0,0.0
261,65,46.8399,54.9589,146.863,99.9922,104.144,0.00466239,0.203069,20.7562,140.28,-0.374958,0.0,0.0
270,67.25,46.9178,55.6261,145.836,99.9528,103.967,0.00497034,0.20488,20.7616,140.099,-0.362915,0.0,0.0
279,69.5,47.2175,55.7617,147.506,99.8775,104.294,0.00538115,0.214426,20.7602,139.969,-0.398797,0.0,0.0
288,71.75,47.0219,55.3558,150.552,99.7756,104.836,0.00531064,0.234869,20.7487,139.809,-0.455993,0.0,0.0
297,74,47.3346,54.5525,151.563,99.6186,105.143,0.00483659,0.257358,20.7202,139.649,-0.497477,0.0,0.0
306,76.25,46.6621,53.3206,158.745,99.5155,104.936,0.0043726,0.267301,20.6996,139.579,-0.488831,0.0,0.0
315,78.5,46.6762,52.5464,156.269,99.6025,105.356,0.00395846,0.263445,20.6922,139.489,-0.517602,0.0,0.0
324,80.75,46.7782,51.8692,156.968,99.6947,105.402,0.00368368,0.251371,20.6969,139.379,-0.513067,0.0,0.0
333,83,46.0266,50.6804,153.191,99.7849,105.411,0.00366235,0.232103,20.7147,139.299,-0.505597,0.0,0.0
342,85.25,45.6073,49.3898,158.133,99.9516,105.77,0.00427085,0.208574,20.7388,139.299,-0.52155,0.0,0.0
351,87.5,45.3369,48.3572,155.134,100.075,105.978,0.00537671,0.186877,20.7631,139.219,-0.528203,0.0,0.0
360,89.75,44.7977,47.3774,153.751,100.181,106.424,0.00629546,0.169682,20.7829,139.129,-0.557251,0.0,0.0
369,92,44.6408,46.4745,156.269,100.294,106.128,0.00700244,0.155015,20.7995,139.149,-0.52108,0.0,0.0
378,94.25,43.4123,45.3416,157.611,100.404,106.269,0.00772177,0.14154,20.8177,139.169,-0.523298,0.0,0.0
387,96.5,42.0229,42.9014,154.985,100.43,106.687,0.00819343,0.131757,20.8329,139.089,-0.55708,0.0,0.0
396,98.75,41.5469,42.3458,154.279,100.452,106.73,0.00854794,0.122258,20.8457,139.028,-0.558725,0.0,0.0
405,101,41.2571,41.9248,159.505,100.451,106.511,0.00871654,0.11195,20.8557,139.028,-0.539923,0.0,0.0
414,103.25,41.2958,41.0238,154.682,100.384,106.674,0.00876471,0.102806,20.8676,139.018,-0.560174,0.0,0.0
423,105.5,40.6319,41.5402,152.944,100.272,106.416,0.0088349,0.0975332,20.877,138.938,-0.548115,0.0,0.0
432,107.75,40.0189,40.9066,158.369,100.118,106.303,0.00876484,0.0943291,20.881,138.948,-0.552464,0.0,0.0
441,110,40.324,40.442,156.124,99.9294,106.137,0.00854692,0.0919294,20.8839,138.908,-0.555519,0.0,0.0
450,112.25,39.9519,39.8414,159.393,99.6911,105.76,0.00828249,0.0902646,20.8866,138.878,-0.544688,0.0,0.0
459,114.5,39.8899,39.7341,154.667,99.431,105.438,0.0079608,0.0892834,20.8876,138.818,-0.540661,0.0,0.0
468,116.75,39.2994,39.2116,160.413,99.1693,105.262,0.00745613,0.0880873,20.8892,138.868,-0.549571,0.0,0.0
477,119,38.8567,39.4562,158.221,98.9459,105.149,0.00701663,0.0869552,20.8914,138.848,-0.560418,0.0,0.0
486,121.25,38.9833,39.439,155.081,98.7095,104.692,0.00668859,0.0861131,20.8936,138.818,-0.542305,0.0,0.0
495,123.5,38.3782,39.1188,150.72,98.5642,104.581,0.00638793,0.0856438,20.8945,138.758,-0.546161,0.0,0.0
504,125.75,38.4766,39.0824,161.276,98.4728,104.457,0.00611745,0.085179,20.8949,138.748,-0.543777,0.0,0.0
513,128,38.3429,38.7398,156.358,98.4032,104.636,0.00594772,0.0845235,20.8951,138.748,-0.566015,0.0,0.0
522,130.25,38.7592,39.1483,162.307,98.4394,104.452,0.00576636,0.0834896,20.8959,138.698,-0.54647,0.0,0.0
531,132.5,38.2744,38.5517,155.312,98.5702,104.572,0.00555585,0.0827325,20.8969,138.728,-0.544781,0.0,0.0
540,134.75,38.3156,38.8276,160.142,98.7297,104.78,0.00548615,0.0820257,20.8973,138.698,-0.548243,0.0,0.0
549,137,38.1406,38.8829,157.516,98.9032,104.948,0.00550299,0.0817499,20.8973,138.658,-0.546805,0.0,0.0
558,139.25,38.2118,38.1436,155.849,99.1673,105.178,0.00537022,0.0815395,20.8982,138.638,-0.542355,0.0,0.0
567,141.5,37.9817,38.6832,158.679,99.3722,105.452,0.00523778,0.0806327,20.8988,138.628,-0.547351,0.0,0.0
576,143.75,37.9657,38.7066,154.755,99.5554,105.653,0.0051368,0.0799211,20.899,138.618,-0.547882,0.0,0.0
585,146,37.7526,38.3285,155.705,99.6717,105.909,0.00505005,0.0787865,20.9001,138.548,-0.559421,0.0,0.0
594,148.25,37.7508,38.6206,156.801,99.7764,105.629,0.00509905,0.0779816,20.9019,138.588,-0.525397,0.0,0.0
603,150.5,37.2434,38.2272,159.832,99.7752,105.714,0.00511573,0.0772922,20.9033,138.618,-0.532879,0.0,0.0
612,152.75,37.9485,38.1182,162.155,99.6979,105.801,0.00500683,0.076141,20.9047,138.548,-0.547656,0.0,0.0
621,155,37.153,38.5626,157.62,99.5997,105.523,0.00483665,0.0750925,20.9051,138.518,-0.532475,0.0,0.0
630,157.25,37.5201,38.9883,157.881,99.4708,105.672,0.0047949,0.0744035,20.9065,138.558,-0.557381,0.0,0.0
639,159.5,37.6668,38.4049,155.854,99.3114,105.507,0.00473741,0.0736858,20.9072,138.528,-0.557789,0.0,0.0
648,161.75,37.2327,38.5423,158.104,99.208,105.214,0.00471953,0.0728711,20.9075,138.438,-0.541765,0.0,0.0
657,164,37.4588,38.4682,156.414,99.3932,105.404,0.00486993,0.0721111,20.908,138.508,-0.541204,0.0,0.0
666,166.25,36.8402,38.3972,159.138,99.7152,106.001,0.0049609,0.0717851,20.9091,138.498,-0.56345,0.0,0.0
675,168.5,37.3807,38.3584,160.656,99.9359,106.191,0.0049385,0.0711517,20.9103,138.478,-0.55953,0.0,0.0
684,170.75,37.3089,38.2199,160.758,100.018,106.207,0.00474276,0.0706261,20.9107,138.398,-0.553388,0.0,0.0
693,173,37.2626,38.0509,155.463,99.9584,106.042,0.00454274,0.0706117,20.9114,138.418,-0.544539,0.0,0.0
702,175.25,37.1351,38.1766,156.689,99.7515,105.885,0.00428897,0.0703871,20.912,138.388,-0.549958,0.0,0.0
711,177.5,36.9315,38.1733,161.109,99.5264,105.531,0.00414988,0.0702737,20.9122,138.358,-0.539905,0.0,0.0
720,179.75,37.1963,38.1104,161.058,99.7277,106.046,0.00416019,0.0702316,20.9123,138.388,-0.566157,0.0,0.0
729,182,37.0634,38.0156,159.371,99.9242,106.194,0.00406968,0.0696749,20.9124,138.388,-0.560874,0.0,0.0
738,184.25,37.0448,37.9334,158.503,100.126,106.255,0.00397818,0.068842,20.9124,138.378,-0.547604,0.0,0.0
747,186.5,36.8955,38.3418,159.652,100.318,106.433,0.00387471,0.0680653,20.9148,138.308,-0.545376,0.0,0.0
756,188.75,37.1896,38.3113,153.487,100.456,106.573,0.00370329,0.0675847,20.916,138.308,-0.544852,0.0,0.0
765,191,37.043,38.1119,160.681,100.483,106.781,0.00366709,0.067611,20.9164,138.298,-0.560392,0.0,0.0
774,193.25,37.011,38.1648,157.701,100.431,106.877,0.00374737,0.068035,20.9166,138.198,-0.573369,0.0,0.0
783,195.5,36.912,37.9476,158.964,100.243,106.268,0.00367436,0.0678589,20.9167,138.268,-0.538023,0.0,0.0
792,197.75,36.951,37.8351,155.857,99.9866,106.131,0.00340511,0.0674002,20.9167,138.278,-0.549658,0.0,0.0
801,200,36.3623,37.9063,159.041,99.6895,105.743,0.00322732,0.0667648,20.9167,138.278,-0.543332,0.0,0.0
810,202.25,37.0987,38.1645,158.991,99.3336,105.292,0.00328627,0.0666068,20.918,138.248,-0.536909,0.0,0.0
819,204.5,36.773,37.9361,152.893,98.9946,105.079,0.00331876,0.0663266,20.9186,138.208,-0.549769,0.0,0.0
828,206.75,36.532,37.9105,154.602,98.7188,104.679,0.00316773,0.0659841,20.9189,138.208,-0.5403,0.0,0.0
837,209,37.1679,38.0655,156.266,98.5231,104.453,0.00308912,0.0660685,20.9186,138.128,-0.538688,0.0,0.0
846,211.25,36.5192,38.1934,156.115,98.4603,104.544,0.00307512,0.0659312,20.9185,138.188,-0.552562,0.0,0.0
855,213.5,36.6888,37.7717,154.588,98.5549,104.612,0.0029909,0.0656335,20.9186,138.188,-0.549744,0.0,0.0
861,215,37.1005,37.7389,159.961,98.6479,104.732,0.00291502,0.0654376,20.9196,138.108,-0.551643,0.0,0.0