File: 01_Data/Corrugated_Cardboard/Cone/Corrugated_Cardboard_Cone_HF25Scan_250211_R2.csv
Names,Time,Stack TC,Smoke TC,Exh Press,Smoke Comp,Smoke Meas,CO Meter,CO2 Meter,O2 Meter,Sample Mass,Ext Coeff,Start Test,Flame Verif
Chan Gain,,500,500,1,1,1,1,1,1,1,1,1.0,1.0
Offset,,0,0,0.131183,0,0,0,0,0,0,0,0.0,0.0
Gain,,1,1,25.011,13.1923,20.2122,1,1,1,1.00092,1.05074,1.0,1.0
Units,sec,C,C,Pa,%,%,%,%,%,g,/m,,
Baseline,,34.3863,35.4506,161.138,100.002,105.983,0.000579399,0.0427604,20.9448,-434.453,-0.535412,,
10,2.25,34.9702,36.5317,159.28,100.418,106.764,0.000392146,0.0414598,20.9496,145.935,-0.564848,0.0,0.0
20,4.75,35.3773,36.5174,154.266,100.467,106.828,0.000497652,0.041939,20.949,145.885,-0.56584,0.0,0.0
30,7.25,35.4572,36.772,164.101,100.446,106.744,0.000513604,0.042725,20.9473,145.554,-0.560594,0.0,0.0
40,9.75,35.1863,36.7157,157.64,100.402,106.55,0.000425893,0.0434835,20.9469,145.905,-0.547793,0.0,0.0
50,12.25,34.9296,36.4365,158.317,100.31,106.456,0.000340469,0.0435853,20.9457,145.775,-0.548147,0.0,0.0
60,14.75,35.6463,37.0491,153.92,100.206,106.424,0.000473812,0.0435774,20.9447,145.875,-0.554881,0.0,0.0
70,17.25,35.4594,36.8851,153.263,100.068,106.118,0.00064774,0.0436547,20.9441,145.745,-0.541093,0.0,0.0
80,19.75,35.4463,36.3828,156.533,99.89,105.678,0.000605597,0.0435377,20.9439,145.765,-0.519166,0.0,0.0
90,22.25,35.1915,36.8546,164.399,99.737,105.067,0.000582018,0.043295,20.9442,145.735,-0.479824,0.0,0.0
100,24.75,35.8259,36.3929,160.571,99.5634,104.073,0.000566199,0.0428921,20.9454,145.735,-0.408286,0.0,0.0
110,27.25,35.0989,36.9992,159.209,99.367,103.637,0.000654198,0.0427863,20.9458,145.715,-0.387788,0.0,0.0
120,29.75,35.6093,37.5179,156.681,99.1854,102.561,0.000881715,0.0427948,20.946,145.524,-0.308419,0.0,0.0
130,32.25,35.0896,37.2298,157.976,99.0207,103.657,0.0012978,0.0430502,20.9454,145.134,-0.421771,0.0,1.0
140,34.75,36.265,40.9687,139.13,98.8585,100.521,0.00185809,0.0437848,20.945,144.864,-0.153737,0.0,1.0
150,37.25,38.8852,47.955,137.507,98.6922,101.057,0.00259538,0.0447601,20.9441,144.534,-0.218215,0.0,1.0
160,39.75,40.8377,52.5661,142.125,98.5735,102.16,0.00348784,0.0464319,20.9433,144.163,-0.329414,0.0,1.0
170,42.25,42.2045,54.543,148.676,98.4527,103.205,0.00422171,0.0747566,20.9395,144.013,-0.434508,0.0,0.0
180,44.75,42.8114,54.2599,145.773,98.3762,103.486,0.00415578,0.197245,20.88,143.723,-0.466757,0.0,0.0
190,47.25,43.2095,53.7011,148.033,98.3665,103.637,0.003682,0.329739,20.7063,143.673,-0.481112,0.0,0.0
200,49.75,43.2999,53.5982,149.194,98.3774,103.969,0.00314138,0.364907,20.6081,143.423,-0.50956,0.0,0.0
210,52.25,43.678,52.2516,157.823,98.4603,104.413,0.00269336,0.33773,20.5879,143.282,-0.54108,0.0,0.0
220,54.75,43.5679,51.6347,148.508,98.5489,104.311,0.00245656,0.294665,20.6243,143.122,-0.52375,0.0,0.0
230,57.25,43.2103,50.3684,151.865,98.6898,104.596,0.00243475,0.261735,20.6662,143.072,-0.535727,0.0,0.0
240,59.75,42.9499,50.1282,153.035,98.8823,104.496,0.00272845,0.234751,20.6992,142.952,-0.508962,0.0,0.0
250,62.25,43.3841,49.8395,153.146,99.0554,104.565,0.00325552,0.21455,20.7326,142.772,-0.498876,0.0,0.0
260,64.75,43.3675,50.0943,148.566,99.2418,104.999,0.00362343,0.199566,20.7549,142.672,-0.519746,0.0,0.0
270,67.25,44.2607,50.6856,145.951,99.4012,104.498,0.00399976,0.189376,20.77,142.392,-0.46088,0.0,0.0
280,69.75,44.1796,52.0617,145.098,99.5288,103.789,0.00450815,0.183941,20.7804,142.201,-0.386274,0.0,0.0
290,72.25,45.1543,53.2179,149.682,99.6315,104.305,0.00485097,0.185294,20.7843,141.881,-0.422506,0.0,0.0
300,74.75,46.0482,54.1544,148.592,99.7358,104.583,0.00454823,0.197674,20.7805,141.791,-0.437414,0.0,0.0
310,77.25,46.029,54.8366,153.764,99.7515,104.434,0.0038213,0.218558,20.764,141.521,-0.422853,0.0,0.0
320,79.75,46.2065,54.5,150.023,99.7317,104.616,0.00317081,0.244045,20.7429,141.481,-0.440722,0.0,0.0
330,82.25,46.4077,53.8889,151.529,99.6508,104.927,0.00295094,0.261324,20.7121,141.291,-0.475498,0.0,0.0
340,84.75,45.9842,52.5609,156.237,99.5916,105.677,0.00301721,0.26725,20.6954,141.09,-0.546627,0.0,0.0
350,87.25,45.1621,50.6758,161.111,99.5002,105.53,0.00334453,0.260954,20.6917,140.94,-0.542275,0.0,0.0
360,89.75,44.6902,49.2917,158.778,99.394,105.574,0.00390752,0.243919,20.7014,141.08,-0.556004,0.0,0.0
370,92.25,44.6535,47.7096,152.855,99.3158,105.481,0.00483989,0.218244,20.7239,141.06,-0.555061,0.0,0.0
380,94.75,43.5982,46.252,157.325,99.2623,105.334,0.00617903,0.18741,20.7551,141.05,-0.547248,0.0,0.0
390,97.25,42.8661,44.6283,161.838,99.214,105.602,0.00744294,0.157209,20.7942,141,-0.57513,0.0,0.0
400,99.75,42.6451,43.824,156.474,99.5019,105.844,0.00847101,0.13338,20.8216,140.8,-0.569561,0.0,0.0
410,102.25,42.0025,43.2032,161.554,99.7672,105.946,0.00885447,0.117517,20.8443,140.98,-0.553876,0.0,0.0
420,104.75,42.2251,42.8973,158.826,99.9093,106.34,0.00877139,0.108399,20.8604,140.9,-0.574982,0.0,0.0
430,107.25,40.0368,40.9543,157.055,100.006,106.335,0.00861746,0.102068,20.8697,140.9,-0.565608,0.0,0.0
440,109.75,40.1714,40.5992,158.058,100.002,106.447,0.00835678,0.0981047,20.8753,140.77,-0.575688,0.0,0.0
450,112.25,39.5296,40.0197,157.836,99.9491,106.31,0.00803056,0.0961017,20.8782,140.78,-0.568633,0.0,0.0
460,114.75,39.3882,39.5592,152.842,99.8356,106.319,0.0077467,0.0945789,20.8792,140.71,-0.579964,0.0,0.0
470,117.25,39.3402,39.2388,158.985,99.6367,105.888,0.00751556,0.0926029,20.8817,140.72,-0.560889,0.0,0.0
480,119.75,38.5965,39.0915,158.849,99.5634,105.844,0.0070204,0.0913591,20.8851,140.7,-0.563803,0.0,0.0
490,122.25,39.1072,39.2313,156.617,99.677,105.745,0.00655523,0.0900165,20.8875,140.68,-0.5447,0.0,0.0
500,124.75,38.2952,38.5042,153.917,99.8497,106.067,0.0062898,0.0891265,20.8894,140.64,-0.556713,0.0,0.0
510,127.25,38.0953,38.8752,159.5,100.014,106.329,0.0060843,0.0883857,20.8904,140.6,-0.564314,0.0,0.0
520,129.75,37.6946,38.6686,156.497,100.17,106.471,0.00587629,0.0872171,20.891,140.6,-0.56231,0.0,0.0
530,132.25,38.3769,38.7495,158.826,100.315,106.575,0.00566286,0.0858811,20.8929,140.56,-0.557877,0.0,0.0
540,134.75,38.3064,38.8986,159.477,100.449,106.728,0.0053591,0.0844975,20.8947,140.59,-0.558824,0.0,0.0
550,137.25,37.783,38.0633,158.227,100.47,106.83,0.00516635,0.0834773,20.8969,140.5,-0.565705,0.0,0.0
560,139.75,37.4888,38.3631,158.705,100.424,106.688,0.00505877,0.0819224,20.8991,140.53,-0.557742,0.0,0.0
570,142.25,37.6333,38.312,156.561,100.307,106.672,0.00486591,0.0805994,20.9001,140.47,-0.567041,0.0,0.0
580,144.75,37.5204,37.9614,156.458,100.1,106.359,0.0048131,0.079289,20.9011,140.5,-0.559035,0.0,0.0
590,147.25,36.861,37.9191,159.181,99.811,105.841,0.0049385,0.078032,20.9026,140.48,-0.540696,0.0,0.0
600,149.75,36.943,38.007,161.598,99.5087,105.72,0.00504141,0.0768575,20.9032,140.46,-0.55807,0.0,0.0
610,152.25,36.9492,37.8951,157.453,99.1846,105.32,0.00505029,0.076114,20.9039,140.44,-0.55317,0.0,0.0
620,154.75,36.7919,37.8682,159.042,98.8694,104.868,0.00496131,0.075216,20.9052,140.45,-0.542912,0.0,0.0
630,157.25,37.1472,37.6626,156.482,98.6318,104.748,0.00476809,0.0743561,20.9056,140.42,-0.554559,0.0,0.0
640,159.75,37.0102,37.4317,157.25,98.4946,104.446,0.00454688,0.0735646,20.9067,140.37,-0.540763,0.0,0.0
650,162.25,36.9311,37.73,158.737,98.4257,104.529,0.00442984,0.0731351,20.908,140.34,-0.554499,0.0,0.0
660,164.75,36.4609,37.2905,157.417,98.4438,104.55,0.00437003,0.0724284,20.9089,140.27,-0.554652,0.0,0.0
670,167.25,36.8197,37.5535,158.392,98.5505,104.228,0.00426944,0.0717307,20.9105,140.32,-0.516293,0.0,0.0
680,169.75,37.0148,37.6955,162.249,98.6576,104.814,0.00423591,0.0710972,20.9111,140.21,-0.557956,0.0,0.0
690,172.25,36.5879,37.4658,157.195,98.8424,105.036,0.00421954,0.0708384,20.9104,140.26,-0.560161,0.0,0.0
700,174.75,36.4844,36.9061,162.316,98.9849,105.062,0.00424938,0.0699916,20.9104,140.21,-0.549154,0.0,0.0
710,177.25,36.1644,37.1579,158.004,99.1504,105.215,0.00443738,0.0696084,20.9113,140.25,-0.54717,0.0,0.0
720,179.75,36.3773,37.0432,154.47,99.2792,105.362,0.00459811,0.0692608,20.9117,140.21,-0.548107,0.0,0.0
730,182.25,36.5104,37.105,153.49,99.4109,105.444,0.00453987,0.0686875,20.9118,140.23,-0.543013,0.0,0.0
740,184.75,36.3575,37.4539,161.268,99.5039,105.659,0.00424453,0.068359,20.912,140.25,-0.553246,0.0,0.0
750,187.25,36.6903,37.3544,157.661,99.5856,105.706,0.0040126,0.0681652,20.9133,140.22,-0.549767,0.0,0.0
760,189.75,35.8978,36.8612,156.03,99.6395,105.938,0.0039752,0.0677666,20.9125,140.069,-0.564976,0.0,0.0
770,192.25,36.0034,36.8803,159.013,99.679,105.745,0.0038079,0.0675169,20.9123,140.18,-0.54446,0.0,0.0
780,194.75,36.1813,36.9944,156.959,99.7241,105.686,0.00359461,0.0674716,20.9128,140.129,-0.535184,0.0,0.0
790,197.25,36.0666,36.9738,157.672,99.7124,105.766,0.00350711,0.0668709,20.915,140.139,-0.543199,0.0,0.0
800,199.75,35.7815,37.0665,153.796,99.749,105.55,0.00340913,0.0661435,20.916,140.17,-0.52098,0.0,0.0
810,202.25,36.2979,37.3414,157.532,99.7257,105.595,0.00330037,0.0657698,20.9176,140.099,-0.527124,0.0,0.0
820,204.75,35.7042,37.4699,158.466,99.7386,105.481,0.00307809,0.0662653,20.9163,140.129,-0.515913,0.0,0.0
830,207.25,36.0382,37.423,165.281,99.7076,105.821,0.0028127,0.066714,20.9158,140.059,-0.548482,0.0,0.0
840,209.75,36.3637,37.3312,159.243,99.7148,105.603,0.00274842,0.0667399,20.9157,140.109,-0.528828,0.0,0.0
850,212.25,36.2826,37.6309,161.765,99.6488,105.677,0.00283673,0.0660686,20.9163,140.069,-0.541338,0.0,0.0
860,214.75,36.405,37.0905,158.798,99.6669,105.603,0.00299182,0.0659809,20.9178,140.079,-0.533257,0.0,0.0
870,217.25,35.9775,37.4866,160.077,99.6138,105.584,0.0029432,0.0658422,20.9184,140.029,-0.53645,0.0,0.0
880,219.75,35.9268,37.2405,157.163,99.6077,105.615,0.00271677,0.0654749,20.919,140.069,-0.539755,0.0,0.0
890,222.25,36.02,37.4064,159.041,99.5747,105.468,0.00266239,0.065584,20.9191,140.049,-0.529935,0.0,0.0
900,224.75,35.7694,36.698,154.976,99.5639,105.567,0.00256643,0.0666072,20.9175,140.009,-0.539617,0.0,0.0
903,225.5,36.0598,37.2369,159.033,99.5707,105.443,0.002497,0.0669144,20.9171,140.009,-0.528152,0.0,0.0