File: 01_Data/Corrugated_Cardboard/Cone/Corrugated_Cardboard_Cone_HF50Scan_250211_R1.csv
Names,Time,Stack TC,Smoke TC,Exh Press,Smoke Comp,Smoke Meas,CO Meter,CO2 Meter,O2 Meter,Sample Mass,Ext Coeff,Start Test,Flame Verif
Chan Gain,,500,500,1,1,1,1,1,1,1,1,1.0,1.0
Offset,,0,0,0.131183,0,0,0,0,0,0,0,0.0,0.0
Gain,,1,1,25.011,13.1923,20.2122,1,1,1,1.00092,1.05074,1.0,1.0
Units,sec,C,C,Pa,%,%,%,%,%,g,/m,,
Baseline,,41.6812,44.3065,156.128,101.266,100.927,0.000904657,0.0487114,20.9327,-435.054,0.0309615,,
8,1.75,41.2168,43.6045,151.714,100.359,100.271,0.000993923,0.0652349,20.9139,145.955,0.0080624,0.0,0.0
16,3.75,41.3497,44.2465,152.85,100.242,99.6053,0.00110213,0.0655396,20.9142,145.905,0.0587155,0.0,0.0
24,5.75,41.0431,44.1856,156.145,100.195,98.7522,0.00122124,0.0657608,20.9146,145.855,0.133663,0.0,0.0
32,7.75,41.4555,44.4169,143.704,100.202,95.5373,0.00128116,0.0660051,20.9147,145.625,0.43942,0.0,1.0
40,9.75,43.7021,51.0812,117.036,100.289,88.8731,0.00120033,0.0658685,20.9137,144.974,1.11387,0.0,1.0
48,11.75,47.4765,61.259,137.57,100.437,86.8573,0.00102437,0.0664286,20.913,144.403,1.33894,0.0,1.0
56,13.75,49.3001,66.5462,140.412,100.596,93.0614,0.000901945,0.0673997,20.9124,144.123,0.717584,0.0,0.0
64,15.75,51.0852,68.879,141.71,100.827,96.4083,0.00107166,0.0757464,20.9104,143.823,0.41307,0.0,0.0
72,17.75,52.1861,69.0161,144.794,101.055,96.7771,0.00183591,0.151354,20.8997,143.623,0.398681,0.0,0.0
80,19.75,52.5986,68.9428,143.399,101.277,97.7129,0.00315132,0.355516,20.7907,143.413,0.330238,0.0,0.0
88,21.75,52.7439,68.7424,142.237,101.51,97.8208,0.00447162,0.545869,20.4916,143.232,0.341178,0.0,0.0
96,23.75,53.086,68.8193,140.934,101.661,97.0356,0.00515501,0.585353,20.3255,143.012,0.429234,0.0,0.0
104,25.75,53.4231,68.3429,140.789,101.793,95.76,0.00496248,0.535497,20.2858,142.792,0.563092,0.0,0.0
112,27.75,54.4271,69.9285,137.631,101.849,94.7971,0.00427,0.448366,20.3609,142.462,0.661376,0.0,0.0
120,29.75,56.2022,72.4231,133.819,101.899,93.4777,0.00366357,0.383237,20.4689,142.111,0.795005,0.0,0.0
128,31.75,57.0569,74.669,140.515,101.883,91.679,0.00321768,0.347913,20.5431,141.691,0.972663,0.0,0.0
136,33.75,58.1086,76.1217,136.118,101.804,93.0755,0.00296597,0.336754,20.5791,141.431,0.826219,0.0,0.0
144,35.75,58.5423,76.3722,145.742,101.707,95.6835,0.00296041,0.350564,20.5911,141.23,0.56269,0.0,0.0
152,37.75,58.4882,74.9879,146.091,101.575,97.7653,0.00304386,0.393295,20.5691,141.12,0.352367,0.0,0.0
160,39.75,58.3448,72.4778,148.913,101.403,98.4864,0.00320728,0.445368,20.5201,141.03,0.269024,0.0,0.0
168,41.75,57.6434,69.9802,153.727,101.253,99.5399,0.00339266,0.485598,20.4524,140.97,0.157254,0.0,0.0
176,43.75,56.4328,67.0788,150.757,101.124,99.1451,0.00338906,0.486727,20.4192,140.9,0.182182,0.0,0.0
184,45.75,56.1149,64.4694,155.499,100.988,98.965,0.00323112,0.445263,20.4223,140.9,0.186494,0.0,0.0
192,47.75,55.0934,61.9972,151.683,100.855,99.5146,0.00311818,0.38116,20.4647,140.87,0.123279,0.0,0.0
200,49.75,54.4033,60.1858,151.942,101.015,99.0588,0.00322364,0.315758,20.5383,140.82,0.180228,0.0,0.0
208,51.75,53.5418,58.5471,158.431,101.124,100.075,0.00372678,0.25688,20.6189,140.77,0.0960385,0.0,0.0
216,53.75,52.9528,57.0155,152.303,101.215,99.5387,0.004655,0.209891,20.6916,140.77,0.153923,0.0,0.0
224,55.75,52.2782,56.091,152.482,101.245,99.3561,0.00578228,0.175589,20.746,140.75,0.17363,0.0,0.0
232,57.75,51.811,54.5647,151.833,101.181,100.352,0.00678525,0.152881,20.7859,140.73,0.0758121,0.0,0.0
240,59.75,51.4258,53.5209,155.367,101.088,99.4683,0.00755143,0.138589,20.8111,140.73,0.14888,0.0,0.0
248,61.75,49.0298,51.302,153.229,100.948,100.019,0.00807192,0.129202,20.8253,140.74,0.0851966,0.0,0.0
256,63.75,48.65,50.4046,150.738,100.814,98.8423,0.0083942,0.122455,20.8347,140.7,0.182045,0.0,0.0
264,65.75,48.4929,50.2703,153.375,100.667,99.7872,0.00845346,0.117918,20.8421,140.68,0.0808639,0.0,0.0
272,67.75,48.2038,49.637,150.554,100.578,98.9305,0.00835151,0.114417,20.8465,140.67,0.152192,0.0,0.0
280,69.75,47.3331,49.4873,156.214,100.661,99.6164,0.00822215,0.111716,20.8507,140.63,0.096181,0.0,0.0
288,71.75,47.3936,49.1998,152.525,100.755,98.6424,0.00808325,0.10961,20.854,140.66,0.195325,0.0,0.0
296,73.75,46.9246,48.3834,152.867,100.908,99.2845,0.00779943,0.108014,20.8571,140.61,0.149469,0.0,0.0
304,75.75,46.6607,47.9757,150.798,101.045,99.8218,0.0074363,0.106776,20.8598,140.6,0.112259,0.0,0.0
312,77.75,46.4088,48.1026,150.653,101.155,99.1747,0.00706604,0.105219,20.861,140.62,0.182219,0.0,0.0
320,79.75,46.226,48.1544,156.354,101.248,99.852,0.00662519,0.103313,20.8631,140.57,0.127922,0.0,0.0
328,81.75,45.8021,47.7177,150.001,101.335,100.294,0.00632973,0.101199,20.865,140.57,0.0951751,0.0,0.0
336,83.75,46.1783,47.8259,149.547,101.387,99.733,0.00612137,0.0991321,20.868,140.51,0.151589,0.0,0.0
344,85.75,45.8958,47.6972,151.907,101.421,99.9698,0.00596904,0.0977687,20.8698,140.51,0.132872,0.0,0.0
352,87.75,45.1767,47.1912,156.728,101.435,99.7946,0.00587158,0.096651,20.8713,140.52,0.150246,0.0,0.0
360,89.75,45.7728,46.7612,153.464,101.412,99.031,0.00576528,0.095168,20.8728,140.51,0.21896,0.0,0.0
368,91.75,45.6539,46.7041,154.327,101.371,99.6824,0.00563207,0.0931672,20.8748,140.51,0.154801,0.0,0.0
376,93.75,45.5495,47.0314,151.13,101.295,100.258,0.00550653,0.0913111,20.8781,140.42,0.0948935,0.0,0.0
384,95.75,44.7455,46.7985,150.467,101.22,101.065,0.00534987,0.0894715,20.8803,140.37,0.0141092,0.0,0.0
392,97.75,45.3303,47.0666,150.524,101.162,99.2895,0.0051915,0.087724,20.883,140.36,0.172222,0.0,0.0
400,99.75,45.1369,46.9726,154.179,101.076,99.2167,0.0051868,0.0870225,20.885,140.34,0.171128,0.0,0.0
408,101.75,44.9155,46.6133,153.314,100.971,99.7441,0.00535443,0.0882902,20.886,140.33,0.112642,0.0,0.0
416,103.75,45.0424,46.5565,145.968,100.873,99.6953,0.00560841,0.0892435,20.8853,140.31,0.108211,0.0,0.0
424,105.75,44.7911,46.468,151.192,100.761,100.511,0.00574621,0.0886361,20.8848,140.3,0.0228761,0.0,0.0
432,107.75,44.5944,46.1889,156.418,100.628,99.8341,0.00572591,0.0872376,20.886,140.28,0.0729957,0.0,0.0
440,109.75,44.9237,46.4425,151.571,100.517,99.4579,0.00567343,0.0854127,20.8873,140.26,0.0976162,0.0,0.0
448,111.75,44.5179,46.5518,152.246,100.407,99.5744,0.00563748,0.0835367,20.8891,140.24,0.0767721,0.0,0.0
456,113.75,44.7038,45.9791,157.868,100.293,99.4332,0.00566826,0.0815945,20.8917,140.23,0.0793542,0.0,0.0
464,115.75,44.3832,46.4415,156.453,100.235,99.6534,0.00572959,0.0800039,20.8937,140.22,0.053598,0.0,0.0
472,117.75,44.4324,46.5087,153.895,100.177,98.4857,0.00569439,0.0783782,20.8946,140.21,0.156937,0.0,0.0
480,119.75,44.6172,46.2644,149.322,100.156,99.3326,0.00552113,0.0771424,20.8964,140.18,0.0760911,0.0,0.0
488,121.75,44.3493,46.4829,154.264,100.175,99.0878,0.00516322,0.076123,20.8984,140.18,0.100545,0.0,0.0
496,123.75,44.1774,45.8705,149.218,100.2,99.5337,0.00480486,0.0754426,20.8992,140.19,0.0614882,0.0,0.0
504,125.75,44.2547,45.8318,152.127,100.24,98.619,0.00470392,0.0746277,20.9006,140.18,0.150253,0.0,0.0
512,127.75,44.2671,46.2008,154.172,100.313,99.9575,0.0047771,0.0740105,20.9014,140.19,0.0327307,0.0,0.0
520,129.75,43.9209,46.7159,152.167,100.411,99.8199,0.00482451,0.0734828,20.9019,140.21,0.0543714,0.0,0.0
528,131.75,44.3366,46.5169,153.656,100.548,100.33,0.00469364,0.0729556,20.9021,140.19,0.0199822,0.0,0.0
536,133.75,43.9633,46.3775,154.746,100.68,99.0526,0.00454033,0.0722877,20.9024,140.18,0.150224,0.0,0.0
544,135.75,44.2408,46.5883,154.146,100.807,99.712,0.00445625,0.0716961,20.9036,140.18,0.100637,0.0,0.0
552,137.75,44.2919,46.716,149.144,100.928,100.385,0.00432289,0.0712745,20.9047,140.16,0.0497127,0.0,0.0
560,139.75,44.0545,46.425,154.279,101.088,100.106,0.00410951,0.0708287,20.9058,140.16,0.0900256,0.0,0.0
568,141.75,44.0282,46.2167,149.343,101.212,100.052,0.00391039,0.070399,20.9048,140.129,0.10623,0.0,0.0
576,143.75,43.7944,46.8649,152.285,101.361,101.17,0.00372847,0.0697829,20.9051,140.129,0.0173922,0.0,0.0
584,145.75,43.8535,46.5944,155.263,101.481,101.162,0.00360096,0.0690136,20.9074,140.119,0.0290261,0.0,0.0
592,147.75,43.8369,46.107,151.43,101.607,100.849,0.00358467,0.0684862,20.9099,140.099,0.0689823,0.0,0.0
600,149.75,43.8421,46.4131,150.296,101.709,101.899,0.00359775,0.0679982,20.911,140.119,-0.0171433,0.0,0.0
608,151.75,43.9021,46.4641,154.164,101.794,99.7293,0.00352482,0.0675396,20.9114,140.099,0.188896,0.0,0.0
616,153.75,43.9533,46.014,151.837,101.863,101.04,0.00348803,0.0674404,20.9116,140.089,0.0748138,0.0,0.0
624,155.75,44.3635,46.7211,152.013,101.87,101.311,0.00349305,0.0673236,20.9117,140.069,0.0507082,0.0,0.0
632,157.75,43.6188,46.3212,153.778,101.898,101.123,0.0035238,0.0670005,20.9117,140.049,0.0703159,0.0,0.0
640,159.75,44.1597,46.4772,152.516,101.896,99.7003,0.00358936,0.0667932,20.9118,140.049,0.200831,0.0,0.0
648,161.75,43.8009,46.2983,151.801,101.859,101.646,0.00354896,0.0664156,20.9118,140.009,0.019286,0.0,0.0
656,163.75,44.0652,46.3843,152.726,101.785,101.35,0.00335704,0.0659854,20.9118,139.979,0.0395043,0.0,0.0
664,165.75,43.8757,46.5038,154.88,101.708,100.38,0.00315081,0.0654495,20.9118,139.959,0.121108,0.0,0.0
672,167.75,44.3859,47.0067,158.646,101.609,100.849,0.00294139,0.0649564,20.9129,139.929,0.0692571,0.0,0.0
680,169.75,44.3549,46.6962,152.662,101.499,101.014,0.00287971,0.0647035,20.9146,139.939,0.0441135,0.0,0.0
688,171.75,43.9502,46.4459,153.032,101.382,100.78,0.00295642,0.0642916,20.9156,139.919,0.0549175,0.0,0.0
696,173.75,43.9793,46.6569,147.367,101.262,100.268,0.00298074,0.0639731,20.9163,139.899,0.0908514,0.0,0.0
704,175.75,43.9407,46.6515,150.989,101.138,100.25,0.00291408,0.0638795,20.9167,139.889,0.0812963,0.0,0.0
712,177.75,44.174,46.7143,151.473,101.028,100.226,0.0027922,0.0636643,20.9174,139.879,0.0735233,0.0,0.0
718,179.25,43.87,46.4141,155.216,100.945,100.954,0.00270864,0.0634045,20.9183,139.959,-0.000832341,0.0,0.0