File: 01_Data/Corrugated_Cardboard/Cone/Corrugated_Cardboard_Cone_HF50Scan_250211_R3.csv
Names,Time,Stack TC,Smoke TC,Exh Press,Smoke Comp,Smoke Meas,CO Meter,CO2 Meter,O2 Meter,Sample Mass,Ext Coeff,Start Test,Flame Verif
Chan Gain,,500,500,1,1,1,1,1,1,1,1,1.0,1.0
Offset,,0,0,0.131183,0,0,0,0,0,0,0,0.0,0.0
Gain,,1,1,25.011,13.1923,20.2122,1,1,1,1.00092,1.05074,1.0,1.0
Units,sec,C,C,Pa,%,%,%,%,%,g,/m,,
Baseline,,51.4023,54.4411,151.67,100.052,105.069,0.000784869,0.0525633,20.9145,-437.003,-0.450885,,
8,1.75,49.6316,51.4229,149.07,99.1588,103.971,0.000467804,0.0550976,20.9148,133.043,-0.4368,0.0,0.0
16,3.75,49.2113,51.4394,150.764,99.1246,104.373,0.000540156,0.0574052,20.9129,132.793,-0.475565,0.0,0.0
24,5.75,49.6585,51.8722,151.092,99.1005,103.528,0.000652643,0.0594633,20.9102,132.773,-0.402882,0.0,0.0
32,7.75,49.64,52.7238,144.962,99.0618,98.5715,0.000697597,0.0614477,20.9064,132.442,0.045735,0.0,1.0
40,9.75,52.2694,59.9556,123.925,99.0687,90.7211,0.000673272,0.0643657,20.9048,131.762,0.811307,0.0,1.0
48,11.75,55.8229,70.8092,129.282,99.0421,90.6212,0.000651105,0.0668328,20.9008,131.261,0.818992,0.0,1.0
56,13.75,58.2762,76.4544,130.971,99.0284,96.082,0.00062202,0.0671831,20.8984,130.861,0.2784,0.0,1.0
64,15.75,59.6667,78.1335,141.294,99.0034,100.423,0.000806433,0.0749263,20.896,130.651,-0.131181,0.0,1.0
72,17.75,60.055,77.7342,143.435,99.0063,100.733,0.00146991,0.171593,20.8862,130.441,-0.159408,0.0,0.0
80,19.75,61.1813,77.8335,141.57,99.0167,98.5061,0.002981,0.39696,20.8318,130.26,0.0476547,0.0,0.0
88,21.75,61.3144,77.3894,138.408,98.9893,98.7059,0.00421949,0.583313,20.5987,130.04,0.0264244,0.0,0.0
96,23.75,61.775,77.8921,140.854,98.9982,98.7177,0.00506541,0.62697,20.3962,129.85,0.0261549,0.0,0.0
104,25.75,62.9157,77.6807,136.32,98.9865,98.627,0.00513386,0.540022,20.3071,129.63,0.0335387,0.0,0.0
112,27.75,63.0093,78.6372,136.726,99.001,97.0973,0.00463726,0.44748,20.3578,129.34,0.178966,0.0,0.0
120,29.75,64.0654,80.7758,131.245,99.026,94.3789,0.00406276,0.382647,20.4529,128.979,0.443012,0.0,0.0
128,31.75,65.4446,82.7895,137.165,99.0449,93.6893,0.00368166,0.356313,20.5158,128.689,0.512367,0.0,0.0
136,33.75,66.1791,84.3651,137.197,99.0252,95.6934,0.00322356,0.348111,20.5515,128.479,0.315454,0.0,0.0
144,35.75,66.5646,83.5069,142.658,99.0574,99.2247,0.00275022,0.355988,20.563,128.319,-0.0155549,0.0,0.0
152,37.75,66.591,82.4645,146.299,99.0811,101.253,0.00256302,0.387664,20.5549,128.168,-0.199838,0.0,0.0
160,39.75,66.4973,80.9883,144.304,99.0924,101.437,0.00279917,0.440666,20.5213,128.048,-0.215563,0.0,0.0
168,41.75,65.4157,78.4819,140.264,99.1154,101.568,0.00330282,0.477025,20.4672,127.978,-0.225304,0.0,0.0
176,43.75,65.3422,76.9966,145.658,99.1371,102.763,0.00367757,0.45834,20.4381,127.858,-0.331073,0.0,0.0
184,45.75,64.842,75.1709,144.365,99.152,102.256,0.0037826,0.405255,20.449,127.808,-0.284155,0.0,0.0
192,47.75,64.1475,72.6169,147.721,99.1822,102.554,0.00357074,0.344949,20.5035,127.738,-0.308163,0.0,0.0
200,49.75,63.3232,70.7117,150.314,99.2144,102.775,0.00322303,0.299568,20.5627,127.668,-0.32494,0.0,0.0
208,51.75,62.3456,68.5924,150.286,99.2345,102.473,0.0029723,0.258049,20.6279,127.618,-0.29598,0.0,0.0
216,53.75,62.1476,67.2799,148.882,99.2575,102.774,0.00304431,0.223845,20.6738,127.608,-0.320884,0.0,0.0
224,55.75,61.432,66.0615,150.059,99.2603,103.179,0.00352808,0.195468,20.7091,127.598,-0.35684,0.0,0.0
232,57.75,60.5594,64.3661,149.943,99.2961,103.256,0.00431968,0.168716,20.7428,127.598,-0.360453,0.0,0.0
240,59.75,59.4599,62.0915,150.646,99.3303,103.535,0.00525598,0.148188,20.7753,127.578,-0.382131,0.0,0.0
248,61.75,58.333,60.9136,146.822,99.3899,104.2,0.00623839,0.133711,20.7976,127.578,-0.435609,0.0,0.0
256,63.75,58.1187,60.2756,149.935,99.4165,103.855,0.00704474,0.123883,20.8139,127.528,-0.40254,0.0,0.0
264,65.75,57.537,59.8827,144.767,99.4684,103.549,0.00766227,0.117791,20.8249,127.528,-0.370589,0.0,0.0
272,67.75,57.1087,59.2883,150.517,99.4966,104.525,0.00808324,0.113932,20.8322,127.528,-0.45443,0.0,0.0
280,69.75,56.7437,58.8182,150.696,99.5546,103.595,0.00827099,0.111339,20.8373,127.478,-0.366672,0.0,0.0
288,71.75,56.2651,58.2673,146.833,99.5957,103.889,0.0082097,0.109436,20.8407,127.488,-0.388956,0.0,0.0
296,73.75,56.2009,58.2,151.277,99.6299,104.125,0.00804387,0.108323,20.843,127.468,-0.406726,0.0,0.0
304,75.75,55.9928,57.7762,147.142,99.6726,103.96,0.00784051,0.107441,20.8444,127.488,-0.388189,0.0,0.0
312,77.75,55.7175,57.4387,149.136,99.7261,104.531,0.00767062,0.106634,20.845,127.458,-0.43374,0.0,0.0
320,79.75,55.1476,57.1728,151.602,99.7499,104.317,0.00751191,0.106064,20.8457,127.438,-0.412652,0.0,0.0
328,81.75,55.4706,56.6127,151.489,99.8199,104.697,0.00730934,0.105537,20.8469,127.418,-0.439639,0.0,0.0
336,83.75,54.7599,56.1209,149.131,99.8755,103.332,0.00709284,0.104775,20.8474,127.408,-0.313604,0.0,0.0
344,85.75,54.6409,56.4026,145.278,99.9073,103.94,0.00684914,0.103979,20.8491,127.388,-0.364705,0.0,0.0
352,87.75,54.4838,56.3997,149.785,99.9612,104.824,0.00660669,0.103077,20.8496,127.378,-0.437835,0.0,0.0
360,89.75,54.2533,56.7479,149.776,100.015,104.606,0.00621234,0.101743,20.8511,127.348,-0.413678,0.0,0.0
368,91.75,53.9527,56.5391,150.823,100.068,104.135,0.00590387,0.100611,20.8534,127.358,-0.367165,0.0,0.0
376,93.75,54.1159,56.1849,146.725,100.089,104.5,0.00575635,0.0998912,20.8555,127.378,-0.397556,0.0,0.0
384,95.75,54.135,55.8333,148.228,100.131,105.228,0.00565151,0.0992324,20.8564,127.388,-0.457622,0.0,0.0
392,97.75,53.494,55.8435,151.926,100.171,104.721,0.00554056,0.0984239,20.8568,127.328,-0.409415,0.0,0.0
400,99.75,53.6127,55.8801,150.085,100.218,104.695,0.00544466,0.0970978,20.8574,127.268,-0.402784,0.0,0.0
408,101.75,53.0927,55.6032,149.26,100.243,104.956,0.0052756,0.0952213,20.86,127.278,-0.423393,0.0,0.0
416,103.75,53.5247,55.2479,149.536,100.304,105.054,0.00513827,0.093977,20.8609,127.298,-0.426505,0.0,0.0
424,105.75,52.7774,55.4579,153.514,100.334,104.629,0.0051201,0.0930557,20.8614,127.258,-0.386278,0.0,0.0
432,107.75,53.4701,54.9704,150.299,100.377,104.856,0.00511292,0.0920212,20.862,127.248,-0.402424,0.0,0.0
440,109.75,53.1918,54.9246,145.413,100.436,104.73,0.00508543,0.0900277,20.8639,127.218,-0.385869,0.0,0.0
448,111.75,52.6166,55.2108,150.495,100.466,104.919,0.0049743,0.0880234,20.8669,127.218,-0.399732,0.0,0.0
456,113.75,52.5,54.9059,149.964,100.501,105.421,0.00478657,0.0867705,20.8707,127.168,-0.440576,0.0,0.0
464,115.75,52.9696,54.9841,147.781,100.521,104.937,0.00463693,0.0861275,20.8729,127.147,-0.396298,0.0,0.0
472,117.75,52.7336,54.7034,149.179,100.559,105.258,0.0046136,0.0852674,20.8739,127.067,-0.420975,0.0,0.0
480,119.75,52.7088,55.1652,151.868,100.571,106.026,0.00464527,0.0842076,20.8754,127.067,-0.486907,0.0,0.0
488,121.75,52.5431,54.5404,146.841,100.591,105.363,0.00465208,0.0831469,20.8774,127.087,-0.427239,0.0,0.0
496,123.75,52.2296,54.5434,149.806,100.627,105.571,0.00464187,0.0824057,20.8784,127.107,-0.442122,0.0,0.0
504,125.75,51.9028,54.2845,149.056,100.663,105.389,0.00461063,0.0812761,20.8802,127.067,-0.42285,0.0,0.0
512,127.75,52.3015,54.4924,148.906,100.697,104.911,0.00459126,0.0802953,20.8823,127.067,-0.377868,0.0,0.0
520,129.75,52.0735,54.1885,144.163,100.697,105.616,0.00466137,0.0797445,20.8832,127.077,-0.439549,0.0,0.0
528,131.75,52.3448,54.6075,147.391,100.736,106.357,0.004746,0.0791688,20.8836,127.027,-0.500452,0.0,0.0
536,133.75,51.4725,54.1067,153.925,100.756,105.622,0.00466289,0.0784292,20.885,126.987,-0.434798,0.0,0.0
544,135.75,52.4756,54.5285,148.861,100.789,104.598,0.00450354,0.0778768,20.8859,126.997,-0.341862,0.0,0.0
552,137.75,52.0767,54.0087,148.647,100.789,105.783,0.00440066,0.0774198,20.8872,126.987,-0.44578,0.0,0.0
560,139.75,52.2757,54.558,148.537,100.828,105.669,0.004462,0.0773357,20.8878,126.997,-0.432225,0.0,0.0
568,141.75,51.695,54.4395,150.598,100.823,105.756,0.00442172,0.0774339,20.888,127.017,-0.440286,0.0,0.0
576,143.75,51.8246,54.3187,148.944,100.869,105.782,0.00424511,0.0774748,20.8881,126.997,-0.438295,0.0,0.0
584,145.75,52.239,54.4511,148.713,100.875,105.76,0.00414667,0.0772961,20.8881,126.987,-0.435862,0.0,0.0
592,147.75,51.6869,54.707,153.909,100.892,105.998,0.00409724,0.0769941,20.8882,126.927,-0.455081,0.0,0.0
600,149.75,51.6662,54.923,149.813,100.928,104.933,0.00403925,0.0766148,20.8882,126.967,-0.358728,0.0,0.0
608,151.75,51.8809,54.6726,149.485,100.91,105.167,0.00405749,0.0765232,20.889,126.927,-0.380894,0.0,0.0
616,153.75,51.7949,54.7858,150.016,100.926,105.501,0.00407482,0.0762457,20.8891,127.037,-0.408586,0.0,0.0
624,155.75,51.6912,54.5453,149.46,100.947,105.278,0.00381424,0.0756933,20.8899,126.957,-0.3872,0.0,0.0
632,157.75,51.3088,54.0261,148.904,100.951,105.709,0.00346735,0.0751898,20.8913,126.947,-0.424449,0.0,0.0
640,159.75,52.0769,54.4809,148.946,100.975,105.654,0.00332241,0.0748931,20.8923,126.937,-0.41753,0.0,0.0
648,161.75,51.8785,54.4025,151.476,100.963,105.824,0.00331348,0.0744875,20.893,126.897,-0.433398,0.0,0.0
656,163.75,51.2278,55.2146,149.573,100.971,105.849,0.00332773,0.0737245,20.8933,126.917,-0.434866,0.0,0.0
664,165.75,52.0027,54.6401,152.64,100.966,105.89,0.00334468,0.0732578,20.8934,126.907,-0.438888,0.0,0.0
672,167.75,51.853,54.0853,150.105,100.964,105.91,0.00319994,0.0730872,20.8934,126.897,-0.440807,0.0,0.0
680,169.75,51.4376,54.1377,151.447,100.964,105.775,0.00301046,0.0730872,20.8935,126.847,-0.42908,0.0,0.0
688,171.75,51.5697,54.201,149.165,100.95,105.34,0.00288944,0.0728677,20.8935,126.857,-0.392342,0.0,0.0
696,173.75,51.3997,53.9876,151.871,100.95,105.623,0.00263835,0.0723847,20.8932,126.877,-0.417118,0.0,0.0
704,175.75,51.5215,54.421,149.882,100.935,105.341,0.00248969,0.0719779,20.8933,126.757,-0.393755,0.0,0.0
710,177.25,51.4279,54.164,147.29,100.937,105.484,0.00247521,0.071669,20.894,126.847,-0.406175,0.0,0.0