File: 01_Data/Corrugated_Cardboard/Cone/Corrugated_Cardboard_Cone_HF75Scan_250211_R1.csv
Names,Time,Stack TC,Smoke TC,Exh Press,Smoke Comp,Smoke Meas,CO Meter,CO2 Meter,O2 Meter,Sample Mass,Ext Coeff,Start Test,Flame Verif
Chan Gain,,500,500,1,1,1,1,1,1,1,1,1.0,1.0
Offset,,0,0,0.131183,0,0,0,0,0,0,0,0.0,0.0
Gain,,1,1,25.011,13.1923,20.2122,1,1,1,1.00092,1.05074,1.0,1.0
Units,sec,C,C,Pa,%,%,%,%,%,g,/m,,
Baseline,,58.2677,62.6212,147.622,100.234,104.555,0.000505636,0.0376017,20.9443,-438.07,-0.388987,,
7,1.5,57.0672,62.1626,150.812,100.51,105.53,0.000578333,0.0402042,20.9435,142.422,-0.449251,0.0,0.0
14,3.25,57.3299,62.2454,146.621,100.392,104.147,0.000530731,0.0406075,20.9435,142.322,-0.338491,0.0,0.0
21,5,58.093,64.0068,132.392,100.265,93.7676,0.000454841,0.0410391,20.9412,141.731,0.617527,0.0,1.0
28,6.75,61.9921,75.3208,103.998,100.125,84.6842,0.000439214,0.0417189,20.9395,141.14,1.54376,0.0,1.0
35,8.5,65.2646,85.3334,125.659,99.9801,83.8947,0.000523857,0.0425389,20.9388,140.57,1.61674,0.0,1.0
42,10.25,67.8582,91.0936,126.971,99.8203,94.0588,0.000595165,0.0437155,20.9384,140.19,0.547967,0.0,1.0
49,12,69.3683,92.6075,129.977,99.6657,96.7037,0.000631926,0.0495439,20.9372,139.839,0.278075,0.0,0.0
56,13.75,70.5075,93.5244,128.471,99.5019,96.9634,0.000904743,0.106743,20.9358,139.709,0.238191,0.0,0.0
63,15.5,71.6205,93.936,135.911,99.3553,95.2437,0.00214694,0.328746,20.9192,139.399,0.389544,0.0,0.0
70,17.25,72.1541,94.1581,132.284,99.2212,93.025,0.00387625,0.631623,20.6472,139.179,0.594351,0.0,0.0
77,19,73.3957,95.8462,127.059,99.0807,91.7543,0.00563947,0.77248,20.2816,138.868,0.708055,0.0,0.0
84,20.75,74.0185,96.9309,136.645,98.9507,93.3328,0.00644005,0.752311,20.1067,138.558,0.538738,0.0,0.0
91,22.5,74.3148,96.872,128.205,98.8621,92.3082,0.0063469,0.660403,20.1203,138.358,0.632222,0.0,0.0
98,24.25,75.3034,97.4077,134.565,98.805,95.1203,0.00567132,0.57395,20.2172,138.098,0.350292,0.0,0.0
105,26,75.3214,96.9693,141.303,98.7627,97.1139,0.00507221,0.521847,20.3057,137.867,0.155169,0.0,0.0
112,27.75,76.115,96.2892,139.033,98.6942,95.8087,0.0047786,0.509474,20.3551,137.697,0.273496,0.0,0.0
119,29.5,75.6003,94.5907,138.275,98.7132,98.6085,0.00485259,0.519309,20.3737,137.687,0.00977918,0.0,0.0
126,31.25,75.4297,93.2483,137.676,98.7562,99.9341,0.00500491,0.522356,20.3731,137.587,-0.109275,0.0,0.0
133,33,74.8381,90.7605,138.569,98.7993,99.9026,0.00493082,0.514417,20.374,137.467,-0.102354,0.0,0.0
140,34.75,74.1409,88.4869,141.101,98.9028,100.902,0.00460949,0.492175,20.3831,137.407,-0.184496,0.0,0.0
147,36.5,73.5892,86.0333,140.301,98.9616,101.082,0.00420693,0.459538,20.3959,137.397,-0.195402,0.0,0.0
154,38.25,73.0291,84.4191,142.642,99.0936,102.305,0.003715,0.404799,20.4389,137.427,-0.293918,0.0,0.0
161,40,72.0943,81.9254,141.073,99.2136,101.996,0.00324585,0.348218,20.5041,137.357,-0.254938,0.0,0.0
168,41.75,71.4537,80.2408,147.046,99.3299,101.622,0.00289747,0.308539,20.5665,137.327,-0.210239,0.0,0.0
175,43.5,70.5763,78.6963,143.046,99.4354,101.96,0.00261069,0.262333,20.6232,137.277,-0.231119,0.0,0.0
182,45.25,70.2807,77.1634,146.103,99.5687,102.824,0.00245151,0.221577,20.6783,137.317,-0.296511,0.0,0.0
189,47,68.5962,74.8223,148.582,99.6866,102.324,0.00251373,0.189854,20.7227,137.317,-0.240646,0.0,0.0
196,48.75,67.6011,73.6158,141.187,99.7978,103.728,0.00283925,0.164475,20.7605,137.227,-0.356032,0.0,0.0
203,50.5,67.3221,72.3312,139.393,99.8726,103.055,0.00327955,0.146831,20.7902,137.257,-0.289072,0.0,0.0
210,52.25,67.2304,71.7524,144.729,99.9745,103.433,0.00375146,0.13368,20.8113,137.247,-0.313487,0.0,0.0
217,54,66.3854,71.5794,145.149,100.059,102.461,0.00417883,0.124551,20.8264,137.247,-0.218642,0.0,0.0
224,55.75,66.1131,70.3786,146.816,100.064,101.696,0.00450891,0.117087,20.8375,137.197,-0.149154,0.0,0.0
231,57.5,65.1428,69.3373,145.445,100.047,103.367,0.00463891,0.112086,20.8466,137.127,-0.30087,0.0,0.0
238,59.25,65.2232,69.373,145.506,100.047,103.309,0.00468446,0.109144,20.8527,137.097,-0.295791,0.0,0.0
245,61,65.097,68.827,144.614,99.989,102.87,0.00481211,0.107019,20.857,137.087,-0.26183,0.0,0.0
252,62.75,64.6705,68.116,143.246,99.9435,103.265,0.00503195,0.104653,20.8611,137.087,-0.301328,0.0,0.0
259,64.5,64.3468,67.9131,143.232,99.8654,102.751,0.00517345,0.101733,20.8652,137.047,-0.262558,0.0,0.0
266,66.25,63.834,67.4298,144.68,99.7829,103.313,0.0051091,0.0989646,20.869,137.047,-0.320447,0.0,0.0
273,68,64.0328,67.4162,147.094,99.6991,102.473,0.0048928,0.0971451,20.8722,137.017,-0.252928,0.0,0.0
280,69.75,63.3578,66.9475,140.588,99.6367,102.63,0.00467513,0.0952453,20.875,137.087,-0.272837,0.0,0.0
287,71.5,63.2204,66.8683,144.436,99.5381,103.589,0.0046425,0.0936789,20.877,137.067,-0.367651,0.0,0.0
294,73.25,63.3233,66.956,146.997,99.5047,102.6,0.00478358,0.092965,20.8785,136.957,-0.282345,0.0,0.0
301,75,63.1824,66.4688,140.535,99.611,101.796,0.00496521,0.0923417,20.8792,136.927,-0.200019,0.0,0.0
308,76.75,63.0328,66.3063,150.769,99.8879,102.325,0.00511397,0.0916607,20.8796,136.977,-0.222164,0.0,0.0
315,78.5,62.3942,66.1912,141.42,100.087,103.34,0.00522952,0.0913469,20.881,136.977,-0.294834,0.0,0.0
322,80.25,62.7109,66.1171,150.476,100.208,102.939,0.00530797,0.0911092,20.8816,136.906,-0.247796,0.0,0.0
329,82,62.4328,66.2891,143.685,100.293,102.596,0.00531729,0.0909675,20.8819,136.906,-0.209227,0.0,0.0
336,83.75,62.4162,66.1229,145.615,100.318,102.845,0.00526166,0.0904402,20.8824,136.886,-0.229386,0.0,0.0
343,85.5,62.2802,66.1918,148.174,100.309,103.196,0.00518665,0.0897168,20.8841,136.937,-0.261508,0.0,0.0
350,87.25,62.2624,65.5868,148.199,100.188,103.12,0.00508168,0.0887395,20.885,136.836,-0.265835,0.0,0.0
357,89,61.7042,65.7304,144.475,100.001,102.73,0.00490392,0.0879369,20.8855,136.796,-0.248108,0.0,0.0
364,90.75,61.7658,65.3986,141.247,99.8702,102.649,0.00468282,0.0868121,20.8869,136.766,-0.252979,0.0,0.0
371,92.5,62.4313,65.328,144.499,99.9934,102.479,0.00455125,0.0852375,20.8886,136.866,-0.226316,0.0,0.0
378,94.25,61.6064,65.4193,145.349,100.121,102.665,0.00452913,0.0831392,20.8908,136.856,-0.231243,0.0,0.0
385,96,61.2434,65.0751,144.675,100.293,104.098,0.00456246,0.0811098,20.8937,136.726,-0.343238,0.0,0.0
392,97.75,61.4374,65.2063,145.877,100.44,103.71,0.00462514,0.0798612,20.8957,136.706,-0.295272,0.0,0.0
399,99.5,61.1983,65.4814,145.845,100.6,104.067,0.00461714,0.0791926,20.8978,136.726,-0.312265,0.0,0.0
406,101.25,61.563,64.8848,147.16,100.727,104.161,0.0045587,0.0785905,20.8988,136.786,-0.309008,0.0,0.0
413,103,61.2925,64.7551,145.597,100.785,103.625,0.0045178,0.0777747,20.9,136.696,-0.256133,0.0,0.0
420,104.75,60.9876,65.0963,145.65,100.812,104.161,0.00445781,0.0767071,20.901,136.646,-0.30122,0.0,0.0
427,106.5,60.8929,64.6887,144.839,100.762,104.632,0.00430759,0.0756337,20.9016,136.646,-0.34741,0.0,0.0
434,108.25,61.0613,64.7141,144.386,100.668,103.38,0.0040375,0.0748476,20.9026,136.726,-0.244973,0.0,0.0
441,110,61.0311,64.6692,148.002,100.507,102.714,0.00378313,0.0742365,20.9036,136.696,-0.200235,0.0,0.0
448,111.75,60.9838,64.5922,143.584,100.298,103.309,0.00363644,0.0733646,20.904,136.616,-0.272676,0.0,0.0
455,113.5,61.3139,64.5919,146.848,100.037,102.793,0.0035592,0.0727326,20.9053,136.636,-0.250467,0.0,0.0
462,115.25,61.2444,64.5923,145.639,99.7937,103.245,0.00346137,0.0720263,20.9065,136.636,-0.313388,0.0,0.0
469,117,60.8186,64.8848,143.764,99.5337,101.946,0.00339889,0.0710531,20.9078,136.636,-0.220736,0.0,0.0
476,118.75,60.6377,64.5916,146.641,99.2824,102.472,0.00335863,0.0697836,20.9094,136.596,-0.291476,0.0,0.0
483,120.5,60.4426,64.9926,146.116,99.0618,102.965,0.00328971,0.0686086,20.9104,136.576,-0.356149,0.0,0.0
490,122.25,60.3133,64.5623,144.349,98.9189,101.725,0.00321816,0.0678615,20.9121,136.546,-0.257798,0.0,0.0
497,124,60.1386,64.4111,146.566,98.8207,102.324,0.00320153,0.0671517,20.913,136.596,-0.321065,0.0,0.0
504,125.75,60.4244,64.4369,142.77,98.7909,102.131,0.00324639,0.0667014,20.9146,136.576,-0.306493,0.0,0.0
511,127.5,60.4118,64.4748,145.683,98.8142,101.461,0.00325228,0.0661367,20.9153,136.546,-0.243661,0.0,0.0
518,129.25,60.4006,64.0583,148.46,98.9008,102.356,0.00309557,0.0656092,20.9158,136.506,-0.31654,0.0,0.0
525,131,60.7418,64.0941,147.189,99.0465,102.48,0.00289589,0.0650001,20.9165,136.556,-0.314069,0.0,0.0
532,132.75,60.573,64.263,151.11,99.2216,102.44,0.00271136,0.0644474,20.9169,136.586,-0.29418,0.0,0.0
539,134.5,60.0038,64.205,142.519,99.4105,101.689,0.00267277,0.0641031,20.9171,136.496,-0.208866,0.0,0.0
546,136.25,60.1068,64.0066,145.771,99.5936,102.377,0.00262522,0.0638343,20.9172,136.526,-0.254082,0.0,0.0
553,138,60.3794,63.8456,145.126,99.7792,102.884,0.00252911,0.063485,20.9173,136.446,-0.282401,0.0,0.0
560,139.75,59.8397,64.2687,147.562,99.9334,103.078,0.00249289,0.0629762,20.9185,136.456,-0.285559,0.0,0.0
567,141.5,59.8562,64.153,147.526,100.047,103.383,0.00258086,0.0624728,20.919,136.446,-0.302393,0.0,0.0
574,143.25,60.1285,64.0204,145.717,100.097,101.577,0.00268384,0.061926,20.9189,136.406,-0.135224,0.0,0.0
581,145,59.9437,64.0339,146.798,100.126,102.928,0.00275006,0.0615628,20.9188,136.396,-0.254378,0.0,0.0
588,146.75,60.1135,64.393,148.388,100.119,103.237,0.00279,0.0615145,20.9188,136.396,-0.282676,0.0,0.0
595,148.5,59.986,63.8768,144.498,100.039,103.161,0.00276014,0.0611768,20.9192,136.426,-0.283241,0.0,0.0
602,150.25,60.3826,64.2439,148.141,99.9117,103.003,0.00267595,0.0608276,20.9202,136.366,-0.280832,0.0,0.0
609,152,60.4496,64.1547,147.282,99.8062,102.919,0.00261234,0.0603282,20.9207,136.336,-0.283115,0.0,0.0
616,153.75,60.1286,64.3814,143.4,99.708,103.071,0.00256243,0.0600256,20.9214,136.336,-0.305769,0.0,0.0
623,155.5,60.2386,64.1331,144.655,99.6105,102.779,0.00252385,0.0597017,20.9226,136.406,-0.288653,0.0,0.0
630,157.25,60.1825,64.1634,147.58,99.5172,102.242,0.00252145,0.0594874,20.9223,136.376,-0.248994,0.0,0.0
637,159,59.8703,64.2711,147.299,99.683,102.49,0.00251149,0.059571,20.9218,136.316,-0.255971,0.0,0.0
644,160.75,59.9571,64.3933,143.596,100.001,103.229,0.00245528,0.0595631,20.9216,136.326,-0.292826,0.0,0.0
651,162.5,59.7591,64.5984,143.265,100.196,103.301,0.00240065,0.0592977,20.9219,136.346,-0.281288,0.0,0.0
658,164.25,59.8529,64.3799,148.08,100.343,102.602,0.00237404,0.0589602,20.9228,136.386,-0.205213,0.0,0.0
662,165.25,60.1548,64.6243,147.533,100.344,104.023,0.00235167,0.0587181,20.9231,136.376,-0.331912,0.0,0.0