File: 01_Data/Corrugated_Cardboard/Cone/Corrugated_Cardboard_Cone_HF75Scan_250211_R2.csv
Names,Time,Stack TC,Smoke TC,Exh Press,Smoke Comp,Smoke Meas,CO Meter,CO2 Meter,O2 Meter,Sample Mass,Ext Coeff,Start Test,Flame Verif
Chan Gain,,500,500,1,1,1,1,1,1,1,1,1.0,1.0
Offset,,0,0,0.131183,0,0,0,0,0,0,0,0.0,0.0
Gain,,1,1,25.011,13.1923,20.2122,1,1,1,1.00092,1.05074,1.0,1.0
Units,sec,C,C,Pa,%,%,%,%,%,g,/m,,
Baseline,,60.6403,64.5856,146.72,100.008,102.998,0.000292328,0.0340596,20.9555,-438.406,-0.271466,,
7,1.5,59.6756,63.6725,147.086,99.8251,102.904,0.000184968,0.0339038,20.9548,139.219,-0.279986,0.0,0.0
14,3.25,59.7988,63.6806,139.696,99.7213,100.16,9.91315e-05,0.0339799,20.955,139.199,-0.0405009,0.0,1.0
21,5,61.4188,68.4583,121.808,99.5977,87.2151,0.000123403,0.0338956,20.9543,138.438,1.22366,0.0,1.0
28,6.75,65.0518,80.9199,112.07,99.6391,84.8748,0.000214815,0.0341933,20.9536,137.757,1.4782,0.0,1.0
35,8.5,67.6083,87.9996,125.393,99.9632,90.7544,0.000307565,0.0351189,20.9532,137.267,0.890777,0.0,1.0
42,10.25,70.0507,92.3392,129.397,100.205,96.6741,0.000450187,0.0383503,20.9526,136.937,0.330652,0.0,1.0
49,12,71.6433,94.1454,128.527,100.351,94.9192,0.000677582,0.0564188,20.9469,136.676,0.512896,0.0,0.0
56,13.75,72.7187,95.0618,134.186,100.328,96.4675,0.00116197,0.192272,20.9284,136.386,0.361699,0.0,0.0
63,15.5,73.4505,95.6041,134.698,100.179,95.4528,0.00261345,0.452263,20.8448,136.146,0.445392,0.0,0.0
70,17.25,74.0937,95.7411,134.553,99.9302,93.5887,0.00408768,0.683803,20.5969,135.906,0.604284,0.0,0.0
77,19,74.8981,96.429,130.559,100.08,90.5614,0.00531397,0.756919,20.3384,135.595,0.921127,0.0,0.0
84,20.75,76.4555,98.5627,126.282,100.295,88.8521,0.00555564,0.712999,20.207,135.275,1.11656,0.0,0.0
91,22.5,77.6369,100.525,122.935,100.524,87.7499,0.00499239,0.620526,20.1762,134.915,1.25269,0.0,0.0
98,24.25,78.5797,101.8,131.374,100.712,89.3259,0.00425533,0.541474,20.2522,134.594,1.10577,0.0,0.0
105,26,79.0109,101.641,134.787,100.836,94.0976,0.00381834,0.497059,20.3363,134.414,0.637439,0.0,0.0
112,27.75,78.9033,99.5447,133.702,100.917,97.3027,0.003744,0.494059,20.3828,134.404,0.33616,0.0,0.0
119,29.5,78.516,97.4962,136.927,100.893,100.952,0.00406842,0.519862,20.4021,134.324,-0.00544372,0.0,0.0
126,31.25,77.84,94.2364,143.277,100.748,101.465,0.00474259,0.566459,20.3803,134.254,-0.0653375,0.0,0.0
133,33,76.7494,91.272,142.256,100.546,101.105,0.00534539,0.584549,20.3281,134.264,-0.0511578,0.0,0.0
140,34.75,76.2167,88.8144,141.544,100.281,99.5239,0.00547177,0.554452,20.2997,134.214,0.0698427,0.0,0.0
147,36.5,75.1819,86.7802,147.629,99.9741,101.235,0.00508643,0.485278,20.3264,134.254,-0.115515,0.0,0.0
154,38.25,74.7741,84.3922,141.104,99.681,99.7101,0.00430533,0.401425,20.3897,134.204,-0.00269288,0.0,0.0
161,40,73.7164,82.1176,144.019,99.4004,101.249,0.00365422,0.326302,20.4729,134.154,-0.169793,0.0,0.0
168,41.75,73.1805,80.5735,151.391,99.2027,100.205,0.00310383,0.259166,20.5675,134.114,-0.0926398,0.0,0.0
175,43.5,71.119,77.8723,143.143,99.0904,100.015,0.00296944,0.212781,20.6413,134.154,-0.0856471,0.0,0.0
182,45.25,70.7725,76.4151,141.08,99.0695,99.6855,0.00311139,0.179578,20.7132,133.914,-0.0571321,0.0,0.0
189,47,70.0869,75.4802,144.54,99.0554,99.9778,0.00328326,0.160933,20.7552,134.054,-0.0854375,0.0,0.0
196,48.75,69.7068,74.1129,144.246,99.2188,99.7953,0.00352693,0.145676,20.7876,134.054,-0.0533938,0.0,0.0
203,50.5,69.1434,73.38,145.299,99.4121,100.677,0.00393952,0.134795,20.8077,134.044,-0.116511,0.0,0.0
210,52.25,68.4596,72.4086,142.341,99.6536,101.832,0.00447806,0.126906,20.821,134.034,-0.199309,0.0,0.0
217,54,68.5383,72.2598,146.619,99.8787,101.823,0.00480589,0.119994,20.8324,134.014,-0.177681,0.0,0.0
224,55.75,67.4908,71.0789,145.562,100.051,102.145,0.00493063,0.113948,20.8423,133.934,-0.190893,0.0,0.0
231,57.5,67.3994,70.4733,145.239,100.166,101.945,0.00500495,0.107842,20.8513,133.924,-0.162241,0.0,0.0
238,59.25,67.1436,70.4665,145.023,100.304,101.82,0.00502564,0.104558,20.8577,133.974,-0.138215,0.0,0.0
245,61,66.7169,69.5704,146.839,100.321,101.658,0.00497238,0.102282,20.8633,133.934,-0.12202,0.0,0.0
252,62.75,66.2388,69.3168,142.762,100.28,101.756,0.00485818,0.100814,20.866,133.894,-0.134681,0.0,0.0
259,64.5,66.1055,69.2089,142.266,100.156,99.976,0.00474333,0.0987254,20.8684,133.894,0.0165499,0.0,0.0
266,66.25,65.8092,68.6942,146.892,100.012,101.348,0.00472161,0.0963118,20.8709,133.884,-0.122298,0.0,0.0
273,68,65.6477,68.5924,141.334,99.8368,100.754,0.00479953,0.093659,20.8755,133.944,-0.0843275,0.0,0.0
280,69.75,65.0456,68.4696,149.163,99.704,100.939,0.00480822,0.0911961,20.8791,133.844,-0.113514,0.0,0.0
287,71.5,65.0799,67.7443,142.303,99.5985,100.024,0.00476755,0.0889452,20.8821,133.844,-0.0393041,0.0,0.0
294,73.25,64.731,67.9501,146.874,99.7917,101.469,0.00477599,0.0872072,20.8849,133.814,-0.153659,0.0,0.0
301,75,64.5769,67.7268,148.115,100.102,101.84,0.00486244,0.085872,20.8872,133.824,-0.158647,0.0,0.0
308,76.75,64.1821,66.8409,148.319,100.297,101.472,0.00495901,0.0848346,20.8887,133.854,-0.107298,0.0,0.0
315,78.5,64.1688,67.1673,143.052,100.35,101.126,0.00501447,0.0838505,20.8894,133.774,-0.0709667,0.0,0.0
322,80.25,64.0588,67.1063,146.258,100.334,101.965,0.00505638,0.0828333,20.891,133.794,-0.148646,0.0,0.0
329,82,63.8711,66.8612,140.302,100.219,100.132,0.00497937,0.0815691,20.893,133.764,0.00798885,0.0,0.0
336,83.75,63.8975,66.8562,145.623,99.962,102.083,0.00482494,0.080281,20.8951,133.794,-0.193526,0.0,0.0
343,85.5,63.7214,66.5827,144.368,100.057,101.155,0.00473022,0.0795449,20.896,133.704,-0.100531,0.0,0.0
350,87.25,63.6366,67.0957,145.529,100.272,101.196,0.00466086,0.0788276,20.8973,133.724,-0.0845504,0.0,0.0
357,89,63.829,66.6191,146.476,100.467,100.439,0.00462872,0.0780401,20.8981,133.653,0.00263003,0.0,0.0
364,90.75,63.3586,66.8715,146.806,100.652,101.666,0.00463633,0.0776876,20.8984,133.774,-0.0923929,0.0,0.0
371,92.5,63.3857,66.6852,147.526,100.818,102.063,0.00464581,0.0775105,20.899,133.724,-0.113123,0.0,0.0
378,94.25,63.2353,66.6734,145.694,100.907,101.933,0.00464762,0.0771607,20.9,133.764,-0.0933041,0.0,0.0
385,96,63.2524,67.1219,146.064,100.948,101.531,0.00459999,0.0763129,20.9002,133.633,-0.053044,0.0,0.0
392,97.75,62.8632,66.0915,145.697,100.927,101.137,0.00449222,0.0755829,20.9004,133.543,-0.0191612,0.0,0.0
399,99.5,62.8705,66.3183,149.456,100.85,101.796,0.00437656,0.0751775,20.9015,133.653,-0.0860447,0.0,0.0
406,101.25,62.6128,65.729,148.71,100.699,102.525,0.00421721,0.0747292,20.902,133.613,-0.165688,0.0,0.0
413,103,62.5524,65.8793,147.613,100.479,101.57,0.00404117,0.074044,20.903,133.593,-0.0995313,0.0,0.0
420,104.75,62.7816,65.8231,146.346,100.244,101.237,0.00395113,0.0734705,20.9039,133.553,-0.0909047,0.0,0.0
427,106.5,63.0709,66.1285,141.218,100.003,100.808,0.0039593,0.0725623,20.9044,133.623,-0.073898,0.0,0.0
434,108.25,62.3329,66.1545,145.543,99.7374,101.509,0.003992,0.0717822,20.9055,133.603,-0.162322,0.0,0.0
441,110,62.3696,65.7803,142.966,99.5035,99.8366,0.00391819,0.0711277,20.9064,133.533,-0.0308054,0.0,0.0
448,111.75,62.667,65.5087,145.547,99.3219,100.415,0.00376943,0.0705193,20.9081,133.493,-0.100901,0.0,0.0
455,113.5,62.387,65.6492,145.31,99.1806,100.006,0.00360265,0.0700803,20.9096,133.443,-0.0763533,0.0,0.0
462,115.25,62.2375,66.0445,143.291,99.1544,99.8119,0.00351721,0.0696374,20.9103,133.553,-0.0609167,0.0,0.0
469,117,62.3765,65.6967,145.454,99.1842,99.5775,0.00356344,0.0689563,20.9116,133.453,-0.0364781,0.0,0.0
476,118.75,61.9904,65.5181,143.511,99.27,99.9334,0.00362556,0.0679364,20.9125,133.433,-0.0613973,0.0,0.0
483,120.5,62.3047,65.4749,145.671,99.4326,99.4751,0.0036438,0.0672866,20.9129,133.453,-0.00394096,0.0,0.0
490,122.25,61.73,65.5801,143.085,99.6407,99.9433,0.00360408,0.0671245,20.9141,133.493,-0.027944,0.0,0.0
497,124,62.1699,65.4149,143.146,99.8199,100.47,0.00357499,0.0671391,20.9149,133.493,-0.0598395,0.0,0.0
504,125.75,61.7533,65.0215,139.614,100.003,101.896,0.00358285,0.0667553,20.9153,133.403,-0.172831,0.0,0.0
511,127.5,61.6179,65.3334,144.581,100.171,100.687,0.0035524,0.0662029,20.9154,133.383,-0.0473208,0.0,0.0
518,129.25,61.7629,65.1617,147.428,100.318,100.003,0.00346258,0.0659103,20.9165,133.423,0.0289297,0.0,0.0
525,131,62.1018,65.9568,142.339,100.411,100.965,0.00337936,0.0656893,20.9172,133.463,-0.0507197,0.0,0.0
532,132.75,61.5072,65.6712,143.132,100.415,102.043,0.00337992,0.0654697,20.9164,133.323,-0.148275,0.0,0.0
539,134.5,61.5688,65.6314,146.466,100.362,100.534,0.00339991,0.0651322,20.9162,133.303,-0.0157844,0.0,0.0
546,136.25,61.8981,65.7388,145.056,100.282,101.547,0.00342515,0.0647212,20.9166,133.303,-0.1155,0.0,0.0
553,138,61.4082,65.292,147.135,100.146,101.65,0.0034006,0.0645544,20.9172,133.343,-0.137434,0.0,0.0
560,139.75,61.5514,65.2047,146.099,99.991,99.7151,0.00334838,0.0643269,20.9183,133.243,0.0254701,0.0,0.0
567,141.5,61.9188,65.0723,147.975,99.8505,101.627,0.00333679,0.0641043,20.9187,133.243,-0.162564,0.0,0.0
574,143.25,62.1694,65.7468,142.776,99.745,100.074,0.00337864,0.0634592,20.919,133.253,-0.0303557,0.0,0.0
581,145,61.7361,65.3041,144.659,99.6766,100.512,0.00348075,0.0627787,20.9191,133.323,-0.07693,0.0,0.0
588,146.75,61.9603,65.4225,145.211,99.8674,100.011,0.00352324,0.0622994,20.9198,133.293,-0.0131999,0.0,0.0
595,148.5,61.6275,65.8504,148.844,100.109,100.91,0.00349992,0.0619406,20.9207,133.233,-0.0734444,0.0,0.0
602,150.25,61.449,65.9053,148.975,100.307,100.154,0.00347314,0.0615428,20.9212,133.233,0.01405,0.0,0.0
609,152,61.9576,65.6929,139.018,100.431,101.094,0.00350175,0.0612568,20.9214,133.233,-0.0605761,0.0,0.0
616,153.75,61.7808,65.2554,146.191,100.423,101.199,0.00355422,0.0608606,20.9215,133.303,-0.0710004,0.0,0.0
623,155.5,61.8215,65.5986,148.403,100.339,101.184,0.00357396,0.0606166,20.9215,133.163,-0.0773045,0.0,0.0
630,157.25,61.5877,66.0009,146.035,100.16,101.51,0.00352624,0.0604713,20.9215,133.143,-0.123396,0.0,0.0
637,159,61.5654,65.4072,141.917,100.059,101.183,0.00340682,0.0599726,20.9215,133.163,-0.103005,0.0,0.0
644,160.75,61.4353,65.5283,145.187,100.183,101.329,0.00331696,0.0595798,20.9228,133.263,-0.104841,0.0,0.0
650,162.25,61.7471,64.9919,146.883,100.303,101.451,0.00331807,0.0590824,20.9233,133.143,-0.104838,0.0,0.0