File: 01_Data/Corrugated_Cardboard/Cone/Corrugated_Cardboard_Cone_HF75Scan_250211_R3.csv
Names,Time,Stack TC,Smoke TC,Exh Press,Smoke Comp,Smoke Meas,CO Meter,CO2 Meter,O2 Meter,Sample Mass,Ext Coeff,Start Test,Flame Verif
Chan Gain,,500,500,1,1,1,1,1,1,1,1,1.0,1.0
Offset,,0,0,0.131183,0,0,0,0,0,0,0,0.0,0.0
Gain,,1,1,25.011,13.1923,20.2122,1,1,1,1.00092,1.05074,1.0,1.0
Units,sec,C,C,Pa,%,%,%,%,%,g,/m,,
Baseline,,61.6495,65.5612,146.546,100.673,98.7295,0.000396318,0.0349771,20.9539,-438.99,0.179866,,
7,1.5,60.3682,64.4399,142.604,100.568,99.0464,0.000214962,0.0357412,20.9548,129.74,0.140473,0.0,0.0
14,3.25,60.3351,64.5228,146.072,100.464,98.3315,0.00011924,0.0356711,20.9539,129.66,0.197753,0.0,0.0
21,5,60.6071,65.3203,120.999,100.392,91.9153,0.000118503,0.035912,20.9535,129.109,0.813077,0.0,1.0
28,6.75,64.4722,75.133,118.983,100.342,84.9624,0.000235538,0.0376235,20.9527,128.379,1.53345,0.0,1.0
35,8.5,68.1569,87.1573,120.405,100.222,85.1789,0.000244101,0.0397564,20.9506,127.858,1.499,0.0,1.0
42,10.25,70.5785,92.5181,130.352,100.076,91.2608,0.000195538,0.0421127,20.9472,127.478,0.849913,0.0,1.0
49,12,72.4345,95.2778,136.602,100.082,91.6741,0.000191345,0.0451084,20.9445,127.077,0.808751,0.0,0.0
56,13.75,73.5964,96.5149,133.061,100.151,91.8555,0.000572467,0.0856172,20.9436,126.837,0.796948,0.0,0.0
63,15.5,74.7543,96.985,132.793,100.243,91.869,0.0014363,0.322901,20.9246,126.617,0.80403,0.0,0.0
70,17.25,75.1006,97.2163,128.975,100.357,91.3429,0.0028397,0.590258,20.7389,126.307,0.867477,0.0,0.0
77,19,75.5251,97.4251,128.284,100.421,89.3129,0.00446018,0.758833,20.3649,126.026,1.08046,0.0,0.0
84,20.75,76.0406,97.9717,136.232,100.562,89.0538,0.00539501,0.764027,20.1861,125.706,1.12016,0.0,0.0
91,22.5,77.2137,98.9539,130.403,100.654,91.2362,0.00545664,0.699057,20.1251,125.496,0.905462,0.0,0.0
98,24.25,77.861,99.2623,134.951,100.759,91.5181,0.00513596,0.61951,20.1807,125.286,0.886608,0.0,0.0
105,26,78.2185,99.1623,127.27,100.815,93.1156,0.00484738,0.554502,20.2547,125.136,0.732218,0.0,0.0
112,27.75,78.6836,98.92,139.538,100.838,94.4653,0.00472301,0.515765,20.3165,124.905,0.601721,0.0,0.0
119,29.5,78.4044,96.8469,137.658,100.889,96.5242,0.00477752,0.505932,20.3596,124.805,0.407657,0.0,0.0
126,31.25,77.9087,94.9826,141.136,100.947,95.2406,0.00484987,0.508319,20.38,124.745,0.536309,0.0,0.0
133,33,77.5565,93.3975,138.857,100.934,96.8148,0.00472952,0.508412,20.3858,124.655,0.384039,0.0,0.0
140,34.75,76.7649,90.7111,146.342,100.931,98.1853,0.00436025,0.499412,20.3886,124.635,0.254212,0.0,0.0
147,36.5,76.3245,88.2291,145.89,100.905,99.1963,0.00400077,0.464763,20.3982,124.595,0.157403,0.0,0.0
154,38.25,73.912,84.5338,142.369,100.856,97.0374,0.00362427,0.409711,20.4208,124.605,0.355765,0.0,0.0
161,40,73.197,82.8317,144.385,100.833,97.9016,0.00335396,0.352964,20.4886,124.565,0.271948,0.0,0.0
168,41.75,72.7615,80.2515,145.205,100.731,99.2352,0.00307973,0.302168,20.5531,124.535,0.137856,0.0,0.0
175,43.5,71.8083,79.2029,145.739,100.649,96.9942,0.00276285,0.253225,20.6176,124.495,0.3409,0.0,0.0
182,45.25,71.7202,77.7189,145.394,100.558,97.199,0.00260089,0.206965,20.6856,124.465,0.313161,0.0,0.0
189,47,70.7891,76.3226,142.739,100.473,96.6279,0.00268671,0.171574,20.7419,124.545,0.359658,0.0,0.0
196,48.75,70.4356,75.3598,144.632,100.341,97.7776,0.00307831,0.148083,20.7802,124.475,0.238511,0.0,0.0
203,50.5,69.7175,74.6248,144.765,100.214,97.4982,0.00343786,0.132537,20.8093,124.415,0.253268,0.0,0.0
210,52.25,69.2593,73.7372,141.373,100.112,96.8296,0.00364665,0.124823,20.8296,124.395,0.307249,0.0,0.0
217,54,69.2327,73.0096,144.773,100.022,97.7209,0.0038056,0.120644,20.8399,124.395,0.214489,0.0,0.0
224,55.75,68.5563,72.3554,144.303,99.9222,97.3249,0.0040465,0.117038,20.8454,124.415,0.242748,0.0,0.0
231,57.5,68.3581,71.7501,149.566,99.8618,96.7013,0.00431848,0.113541,20.8487,124.395,0.296423,0.0,0.0
238,59.25,68.0105,71.275,144.178,99.7837,97.0707,0.00454494,0.110655,20.8539,124.355,0.254063,0.0,0.0
245,61,67.2476,70.8994,147.59,99.7535,97.4507,0.00479413,0.1077,20.8575,124.325,0.215265,0.0,0.0
252,62.75,67.2105,70.265,144.455,99.7253,97.2342,0.00499351,0.104862,20.8611,124.345,0.233162,0.0,0.0
259,64.5,67.2116,69.9304,142.554,99.712,96.4015,0.00507066,0.102038,20.8643,124.335,0.311208,0.0,0.0
266,66.25,66.9564,69.4108,143.098,99.7241,97.0936,0.00505668,0.0992615,20.869,124.255,0.24639,0.0,0.0
273,68,66.2798,69.3838,147.69,99.7583,97.711,0.00497484,0.0964115,20.8724,124.255,0.191125,0.0,0.0
280,69.75,66.4344,68.9666,142.19,99.8537,96.9276,0.00476761,0.0939189,20.8745,124.315,0.274129,0.0,0.0
287,71.5,65.9203,68.7244,141.154,99.9133,98.3568,0.00460247,0.0919558,20.8772,124.325,0.144716,0.0,0.0
294,73.25,65.5254,68.3971,146.326,100.014,97.5716,0.00460576,0.0903322,20.8795,124.215,0.227911,0.0,0.0
301,75,65.6543,68.822,145.55,100.109,97.1213,0.00462775,0.0888683,20.882,124.215,0.279223,0.0,0.0
308,76.75,65.5225,68.7452,144.475,100.231,97.5192,0.00452671,0.0873007,20.8842,124.205,0.252768,0.0,0.0
315,78.5,65.1505,68.3741,138.084,100.403,98.6461,0.00439428,0.0859687,20.8857,124.235,0.162735,0.0,0.0
322,80.25,64.9945,67.9607,143.696,100.504,98.0348,0.00437365,0.0846583,20.888,124.185,0.229261,0.0,0.0
329,82,64.9819,67.9066,143.283,100.637,98.0688,0.0044066,0.0837262,20.8895,124.155,0.238248,0.0,0.0
336,83.75,64.3271,67.6549,144.337,100.781,99.002,0.00453175,0.0832048,20.8925,124.155,0.164141,0.0,0.0
343,85.5,64.4366,67.4307,147.387,100.905,97.4661,0.004563,0.0830087,20.8942,124.175,0.319624,0.0,0.0
350,87.25,64.3686,67.7363,147.56,101.024,98.9465,0.00446823,0.0825286,20.895,124.145,0.191487,0.0,0.0
357,89,64.2077,67.6129,141.387,101.127,97.9497,0.00436275,0.0820345,20.8955,124.065,0.294209,0.0,0.0
364,90.75,64.4206,67.6296,147.617,101.196,98.2168,0.00430316,0.0813056,20.896,124.055,0.27542,0.0,0.0
371,92.5,64.4122,68.0301,148.128,101.283,98.2692,0.00424392,0.0802229,20.8966,124.075,0.278381,0.0,0.0
378,94.25,63.597,67.653,145.529,101.342,98.2378,0.00414455,0.0794835,20.8978,124.105,0.286717,0.0,0.0
385,96,64.0553,67.7498,144.849,101.384,98.8151,0.00411141,0.0791942,20.8984,124.015,0.23655,0.0,0.0
392,97.75,64.123,68.0475,147.856,101.375,99.7737,0.00421778,0.0790686,20.8987,124.015,0.146767,0.0,0.0
399,99.5,64.0094,67.4169,144.419,101.377,99.2093,0.00429926,0.0786269,20.8994,124.015,0.1992,0.0,0.0
406,101.25,63.5601,67.5051,142.678,101.387,99.7922,0.00424002,0.0777674,20.9004,124.075,0.146119,0.0,0.0
413,103,63.8207,67.0135,143.072,101.348,99.3055,0.00416364,0.0765672,20.9008,124.085,0.187628,0.0,0.0
420,104.75,63.35,67.1118,144.197,101.227,98.7232,0.00410125,0.0755252,20.9015,124.015,0.230842,0.0,0.0
427,106.5,63.332,66.8181,146.081,101.144,98.5474,0.00396426,0.0745332,20.903,123.995,0.239677,0.0,0.0
434,108.25,63.174,66.8297,146.024,101.044,98.1255,0.00382114,0.0735824,20.9039,123.985,0.270155,0.0,0.0
441,110,63.1135,66.329,140.447,100.962,99.8415,0.00362374,0.0726128,20.9054,124.035,0.102869,0.0,0.0
448,111.75,63.1572,66.8203,140.607,100.854,98.5406,0.00337504,0.0715805,20.9058,123.955,0.213895,0.0,0.0
455,113.5,63.276,66.6973,144.957,100.727,98.9212,0.00326219,0.0708143,20.9059,123.914,0.166696,0.0,0.0
462,115.25,63.2368,66.4192,145.794,100.613,99.3962,0.00326087,0.0698608,20.9068,123.935,0.112116,0.0,0.0
469,117,62.5628,66.1134,147.535,100.506,98.3759,0.00334618,0.0689527,20.9089,123.935,0.197432,0.0,0.0
476,118.75,62.8203,65.7337,145.384,100.439,97.4297,0.00347845,0.06817,20.9099,123.924,0.28042,0.0,0.0
483,120.5,62.2803,66.0498,144.751,100.398,98.7738,0.00354959,0.0676505,20.9103,123.884,0.150369,0.0,0.0
490,122.25,62.4668,66.2639,145.91,100.551,98.767,0.00344996,0.0671456,20.9108,123.864,0.164998,0.0,0.0
497,124,62.5558,65.8646,144.555,100.648,99.105,0.00328804,0.0662707,20.912,123.834,0.142361,0.0,0.0
504,125.75,62.4328,65.905,144.48,100.729,97.1522,0.00310752,0.0654493,20.9126,123.884,0.333204,0.0,0.0
511,127.5,62.7954,66.4624,146.682,100.733,98.8194,0.00293371,0.0647196,20.9128,123.844,0.176809,0.0,0.0
518,129.25,62.1272,65.9372,144.071,100.735,99.1667,0.00282424,0.0644694,20.9141,123.814,0.144586,0.0,0.0
525,131,62.2351,66.0462,145.087,100.678,97.8806,0.00280901,0.0645534,20.9153,123.784,0.259744,0.0,0.0
532,132.75,62.2555,66.1037,145.001,100.599,97.8492,0.00282114,0.0647519,20.9162,123.854,0.255443,0.0,0.0
539,134.5,62.4395,65.9029,146.333,100.484,97.9719,0.00280408,0.064983,20.9167,123.844,0.23337,0.0,0.0
546,136.25,62.6746,66.2724,146.04,100.381,98.9514,0.00277742,0.064881,20.9169,123.814,0.132218,0.0,0.0
553,138,62.0518,66.3769,144.807,100.283,97.6888,0.00271724,0.0645622,20.9158,123.784,0.241561,0.0,0.0
560,139.75,62.2121,66.4951,146.191,100.17,97.4643,0.00263101,0.0640707,20.9153,123.764,0.252366,0.0,0.0
567,141.5,61.9288,66.3136,146.948,100.083,98.7763,0.00260616,0.0635945,20.9162,123.774,0.121153,0.0,0.0
574,143.25,62.6297,66.6132,142.869,100.123,98.3926,0.002654,0.0631488,20.9167,123.714,0.160656,0.0,0.0
581,145,62.0607,66.6631,149.607,100.205,97.0491,0.0027158,0.06296,20.9169,123.694,0.294929,0.0,0.0
588,146.75,62.1488,66.5967,148.449,100.339,97.9423,0.00271297,0.0629396,20.917,123.694,0.222815,0.0,0.0
595,148.5,62.3465,66.2627,142.438,100.454,98.4759,0.00266257,0.0628943,20.9171,123.774,0.183311,0.0,0.0
602,150.25,62.413,66.2132,145.742,100.592,99.2568,0.00260899,0.0629634,20.9171,123.784,0.123206,0.0,0.0
609,152,62.193,66.1442,147.154,100.68,99.3061,0.00262933,0.0630995,20.9185,123.714,0.126664,0.0,0.0
616,153.75,61.9225,65.7836,144.331,100.76,98.9175,0.00276722,0.0629615,20.9199,123.704,0.170097,0.0,0.0
623,155.5,61.628,65.8656,146.873,100.83,98.8083,0.00289523,0.0623877,20.9203,123.594,0.186682,0.0,0.0
629,157,62.2701,65.8467,147.431,100.866,99.7009,0.00294482,0.0618963,20.9205,122.793,0.107109,0.0,0.0