File: 01_Data/Corrugated_Cardboard/Cone/Corrugated_Cardboard_HRRPUA_50.csv
Time after Ignition,Corrugated_Cardboard_R1,Corrugated_Cardboard_R2,Corrugated_Cardboard_R3,Mean,Std. Dev.
0.0,9.2,6.2,3.3,6.2,2.9
0.25,9.2,6.2,3.5,6.3,2.9
0.5,8.9,6.2,3.6,6.2,2.7
0.75,8.9,6.2,3.8,6.3,2.5
1.0,8.7,6.0,4.0,6.2,2.4
1.25,8.8,6.3,4.0,6.4,2.4
1.5,8.5,6.4,4.2,6.3,2.2
1.75,8.7,6.2,4.2,6.4,2.2
2.0,8.7,6.5,4.3,6.5,2.2
2.25,8.7,7.0,4.3,6.7,2.2
2.5,8.5,7.0,4.3,6.6,2.1
2.75,9.1,7.4,4.4,7.0,2.4
3.0,8.9,7.6,4.4,7.0,2.3
3.25,8.7,7.6,4.7,7.0,2.1
3.5,8.7,8.0,4.8,7.2,2.1
3.75,8.8,8.5,5.1,7.5,2.0
4.0,9.2,8.6,5.2,7.7,2.2
4.25,9.2,8.9,5.4,7.8,2.1
4.5,9.5,9.1,5.8,8.1,2.0
4.75,9.3,9.3,6.0,8.2,1.9
5.0,9.3,9.5,6.3,8.4,1.8
5.25,9.6,9.7,6.3,8.5,1.9
5.5,9.5,9.8,6.5,8.6,1.8
5.75,9.5,10.1,6.7,8.8,1.8
6.0,9.6,10.2,6.9,8.9,1.8
6.25,9.5,10.6,6.9,9.0,1.9
6.5,9.9,10.7,7.2,9.3,1.8
6.75,9.6,11.2,7.3,9.4,1.9
7.0,10.1,11.3,7.5,9.6,2.0
7.25,9.8,11.5,7.7,9.7,1.9
7.5,10.1,12.2,8.0,10.1,2.1
7.75,10.0,12.7,8.2,10.3,2.3
8.0,10.4,13.0,8.3,10.6,2.4
8.25,10.6,13.6,8.4,10.8,2.7
8.5,10.9,14.7,8.5,11.4,3.1
8.75,10.9,16.1,8.6,11.9,3.8
9.0,11.4,17.2,8.8,12.5,4.3
9.25,11.8,18.1,8.8,12.9,4.8
9.5,12.2,21.4,8.8,14.2,6.5
9.75,12.8,24.7,8.9,15.5,8.2
10.0,13.0,27.8,9.0,16.6,9.9
10.25,13.1,30.4,10.3,17.9,10.9
10.5,16.2,32.7,11.4,20.1,11.2
10.75,19.1,34.3,12.6,22.0,11.2
11.0,21.7,44.3,13.6,26.5,15.9
11.25,23.7,53.6,14.2,30.5,20.6
11.5,35.0,60.7,15.1,36.9,22.9
11.75,45.6,66.8,15.9,42.7,25.6
12.0,53.3,86.0,16.4,51.9,34.8
12.25,61.7,102.7,27.3,63.9,37.7
12.5,69.1,115.9,31.2,72.1,42.4
12.75,87.4,129.9,35.5,84.2,47.3
13.0,101.3,149.5,39.5,96.8,55.2
13.25,116.2,170.1,40.0,108.8,65.4
13.5,140.5,188.8,50.8,126.7,70.0
13.75,162.4,184.6,61.0,136.0,65.9
14.0,180.5,202.0,70.7,151.1,70.4
14.25,200.1,215.6,93.7,169.8,66.3
14.5,212.6,243.2,112.9,189.6,68.2
14.75,227.9,251.4,132.5,203.9,63.0
15.0,239.1,262.7,148.5,216.8,60.3
15.25,252.2,259.9,166.2,226.1,52.0
15.5,261.3,262.5,180.6,234.8,47.0
15.75,268.4,273.2,192.8,244.8,45.1
16.0,281.0,283.4,203.4,256.0,45.5
16.25,285.0,284.8,218.3,262.7,38.5
16.5,290.3,287.8,226.9,268.3,35.9
16.75,296.5,295.4,236.4,276.1,34.4
17.0,294.2,293.9,244.8,277.6,28.5
17.25,306.9,293.8,249.6,283.4,30.0
17.5,307.5,297.3,257.8,287.5,26.3
17.75,308.3,298.8,265.9,291.0,22.3
18.0,312.6,299.9,269.3,294.0,22.2
18.25,312.8,296.5,269.9,293.0,21.7
18.5,308.7,294.0,279.9,294.2,14.4
18.75,302.7,294.9,280.7,292.7,11.2
19.0,299.4,294.7,281.3,291.8,9.4
19.25,299.1,286.4,280.5,288.7,9.5
19.5,294.6,286.1,274.0,284.9,10.4
19.75,282.5,281.5,277.7,280.6,2.5
20.0,282.1,274.0,278.6,278.2,4.0
20.25,276.0,272.9,278.9,275.9,3.0
20.5,269.8,261.7,273.5,268.3,6.0
20.75,262.5,257.6,261.2,260.4,2.5
21.0,252.2,253.6,258.4,254.7,3.2
21.25,249.3,249.8,251.3,250.1,1.0
21.5,240.5,243.9,250.8,245.1,5.2
21.75,237.6,236.9,242.8,239.1,3.2
22.0,231.4,231.1,230.6,231.0,0.4
22.25,219.1,229.7,233.7,227.5,7.6
22.5,215.6,220.8,220.1,218.8,2.8
22.75,212.0,211.9,215.9,213.3,2.3
23.0,206.6,210.3,209.9,209.0,2.0
23.25,200.6,210.2,205.0,205.3,4.8
23.5,200.0,203.1,204.5,202.5,2.3
23.75,194.2,199.3,197.2,196.9,2.6
24.0,187.8,197.6,189.5,191.6,5.2
24.25,187.0,195.7,189.2,190.6,4.5
24.5,185.6,191.1,186.6,187.8,2.9
24.75,181.9,188.1,184.7,184.9,3.1
25.0,177.3,189.2,185.2,183.9,6.1
25.25,175.0,187.7,179.8,180.8,6.4
25.5,173.9,186.0,179.2,179.7,6.1
25.75,168.1,183.7,173.1,175.0,8.0
26.0,169.2,183.4,176.0,176.2,7.1
26.25,168.3,179.6,174.6,174.2,5.6
26.5,165.6,178.7,168.4,170.9,6.9
26.75,165.8,176.0,172.5,171.4,5.2
27.0,167.1,174.7,168.6,170.1,4.0
27.25,163.7,175.9,166.8,168.8,6.3
27.5,164.0,175.9,166.8,168.9,6.2
27.75,166.5,177.8,166.2,170.2,6.6
28.0,160.9,174.8,166.8,167.5,7.0
28.25,163.8,178.3,166.0,169.4,7.8
28.5,165.5,174.5,164.9,168.3,5.3
28.75,165.5,171.8,164.3,167.2,4.1
29.0,166.0,176.3,166.4,169.6,5.8
29.25,165.3,177.9,167.1,170.1,6.8
29.5,167.2,176.4,167.8,170.5,5.2
29.75,169.1,178.9,167.0,171.6,6.3
30.0,172.5,178.6,164.8,172.0,6.9
30.25,172.2,180.3,166.6,173.0,6.9
30.5,176.3,175.0,169.4,173.6,3.7
30.75,177.4,186.5,170.0,178.0,8.3
31.0,178.9,181.0,172.3,177.4,4.5
31.25,186.2,188.8,170.3,181.8,10.0
31.5,183.7,186.2,171.9,180.6,7.7
31.75,188.4,187.4,175.4,183.7,7.3
32.0,194.3,188.9,179.9,187.7,7.3
32.25,196.0,190.4,177.7,188.0,9.4
32.5,201.9,192.9,180.8,191.9,10.6
32.75,207.6,193.8,186.0,195.8,11.0
33.0,211.6,195.3,187.1,198.0,12.5
33.25,218.7,199.2,185.8,201.2,16.6
33.5,222.3,205.3,191.6,206.4,15.4
33.75,222.6,208.7,195.0,208.8,13.8
34.0,229.0,210.5,198.8,212.8,15.2
34.25,232.3,214.3,203.2,216.6,14.7
34.5,238.7,214.8,205.4,219.6,17.2
34.75,238.1,213.7,213.7,221.8,14.1
35.0,242.5,219.7,210.0,224.1,16.7
35.25,245.3,219.4,214.0,226.2,16.7
35.5,250.8,221.2,217.4,229.8,18.3
35.75,247.2,222.1,225.8,231.7,13.5
36.0,251.2,224.0,217.6,230.9,17.8
36.25,255.7,223.5,224.8,234.7,18.2
36.5,253.1,227.8,221.8,234.2,16.6
36.75,254.4,225.5,227.8,235.9,16.1
37.0,254.1,229.1,227.8,237.0,14.8
37.25,258.9,232.5,230.4,240.6,15.9
37.5,253.2,228.4,230.1,237.2,13.8
37.75,258.4,225.9,229.9,238.0,17.7
38.0,257.3,226.4,232.7,238.8,16.4
38.25,257.1,228.3,228.2,237.9,16.7
38.5,255.6,233.9,227.2,238.9,14.8
38.75,249.6,228.1,224.5,234.1,13.6
39.0,248.9,222.9,221.8,231.2,15.3
39.25,250.0,223.4,222.9,232.1,15.5
39.5,247.1,222.2,221.2,230.2,14.7
39.75,238.5,220.9,218.4,225.9,10.9
40.0,240.9,216.5,211.6,223.0,15.7
40.25,236.8,216.4,211.2,221.5,13.5
40.5,232.0,215.1,207.6,218.3,12.5
40.75,228.3,206.9,203.7,213.0,13.4
41.0,224.9,206.9,198.5,210.1,13.5
41.25,226.1,203.8,193.9,207.9,16.5
41.5,215.4,197.6,190.0,201.0,13.0
41.75,211.9,198.1,184.3,198.1,13.8
42.0,205.8,195.3,180.7,193.9,12.6
42.25,201.4,189.3,178.2,189.6,11.6
42.5,196.2,186.4,172.3,184.9,12.0
42.75,191.8,180.5,170.6,181.0,10.6
43.0,187.2,183.4,171.8,180.8,8.0
43.25,182.1,174.4,164.4,173.6,8.8
43.5,174.6,172.0,162.5,169.7,6.4
43.75,170.4,167.1,156.1,164.5,7.5
44.0,166.4,162.6,154.2,161.1,6.3
44.25,162.4,159.9,148.3,156.8,7.5
44.5,159.8,158.5,146.4,154.9,7.4
44.75,151.7,154.2,141.3,149.1,6.8
45.0,148.7,154.1,140.3,147.7,7.0
45.25,143.7,150.1,136.7,143.5,6.7
45.5,137.9,148.6,131.5,139.3,8.6
45.75,132.9,142.1,129.9,134.9,6.4
46.0,128.7,143.9,127.5,133.4,9.2
46.25,125.1,139.0,124.4,129.5,8.2
46.5,120.7,137.4,124.9,127.6,8.7
46.75,115.5,135.8,119.8,123.7,10.7
47.0,112.9,131.9,117.4,120.7,9.9
47.25,108.8,130.2,116.0,118.3,10.9
47.5,106.4,127.5,112.8,115.6,10.8
47.75,102.7,125.0,111.5,113.0,11.2
48.0,99.5,122.0,109.2,110.2,11.3
48.25,96.0,119.4,105.6,107.0,11.7
48.5,93.7,119.4,106.3,106.5,12.8
48.75,91.7,117.0,103.6,104.1,12.6
49.0,88.2,113.9,100.8,100.9,12.9
49.25,86.0,113.6,97.7,99.1,13.8
49.5,83.1,110.4,95.6,96.4,13.6
49.75,81.1,107.8,96.0,95.0,13.3
50.0,78.3,105.4,91.4,91.7,13.6
50.25,75.6,,89.4,82.5,9.8
50.5,73.6,,87.7,80.7,10.0
50.75,72.0,,87.2,79.6,10.8
51.0,70.7,,,70.7,
51.25,68.0,,,68.0,
51.5,68.0,,,68.0,
51.75,66.1,,,66.1,
52.0,63.7,,,63.7,
52.25,62.4,,,62.4,