File: 01_Data/Corrugated_Cardboard/Cone/Corrugated_Cardboard_Cone_HF50Scan_250211_R2.csv
Names,Time,Stack TC,Smoke TC,Exh Press,Smoke Comp,Smoke Meas,CO Meter,CO2 Meter,O2 Meter,Sample Mass,Ext Coeff,Start Test,Flame Verif
Chan Gain,,500,500,1,1,1,1,1,1,1,1,1.0,1.0
Offset,,0,0,0.131183,0,0,0,0,0,0,0,0.0,0.0
Gain,,1,1,25.011,13.1923,20.2122,1,1,1,1.00092,1.05074,1.0,1.0
Units,sec,C,C,Pa,%,%,%,%,%,g,/m,,
Baseline,,45.3828,47.7591,154.014,100.869,102.057,0.000694603,0.0471826,20.9332,-435.293,-0.107842,,
8,1.75,45.1697,47.7367,148.318,100.216,101.546,0.000509018,0.0521401,20.9246,142.472,-0.121532,0.0,0.0
16,3.75,44.9395,47.3158,150.004,100.142,101.009,0.000543893,0.0524619,20.9231,142.412,-0.0794532,0.0,0.0
24,5.75,45.3902,47.663,154.022,100.088,100.907,0.000607325,0.0525891,20.9221,142.352,-0.0751281,0.0,0.0
32,7.75,45.3194,48.3394,147.958,100.006,96.4169,0.000602608,0.0533892,20.9209,142.061,0.336823,0.0,1.0
40,9.75,46.7187,53.7628,118.004,99.9648,89.8637,0.000500401,0.0562617,20.9193,141.401,0.981832,0.0,1.0
48,11.75,50.9736,64.5699,135.056,99.9507,88.9379,0.000399085,0.0607014,20.9154,140.88,1.07599,0.0,1.0
56,13.75,52.6073,69.1383,134.141,99.9475,93.7849,0.000405393,0.0664699,20.9119,140.54,0.586582,0.0,1.0
64,15.75,54.2541,71.8925,138.542,99.9306,97.7869,0.000585968,0.0815464,20.9067,140.27,0.199877,0.0,1.0
72,17.75,55.5121,72.9068,141.775,99.9934,96.5316,0.00149481,0.155358,20.882,140.039,0.324748,0.0,1.0
80,19.75,55.6379,72.6857,142.051,100.073,97.9275,0.00305297,0.377864,20.7948,139.889,0.199768,0.0,0.0
88,21.75,56.3804,72.3074,137.865,100.153,96.9492,0.00492972,0.544136,20.5423,139.679,0.299645,0.0,0.0
96,23.75,56.9141,72.4614,140.46,100.23,97.6931,0.00570735,0.605414,20.3578,139.469,0.236268,0.0,0.0
104,25.75,57.5496,72.7906,138.445,100.351,95.7711,0.00538094,0.558765,20.298,139.209,0.430586,0.0,0.0
112,27.75,57.9111,73.3043,140.861,100.464,96.1122,0.00448906,0.480012,20.3401,138.978,0.408165,0.0,0.0
120,29.75,58.8496,74.4816,136.245,100.574,95.7248,0.00374775,0.411845,20.4257,138.708,0.455465,0.0,0.0
128,31.75,60.0173,76.298,135.239,100.675,93.0225,0.00337419,0.370965,20.5045,138.378,0.728697,0.0,0.0
136,33.75,60.67,77.4853,140.13,100.799,93.6788,0.00321949,0.354954,20.545,138.088,0.675169,0.0,0.0
144,35.75,61.4444,78.2146,144.11,100.926,96.5359,0.0031954,0.356847,20.5624,137.897,0.40992,0.0,0.0
152,37.75,61.5725,77.4043,145.5,101.062,97.7505,0.00316252,0.375904,20.5619,137.727,0.30703,0.0,0.0
160,39.75,61.472,75.677,143.397,101.152,98.6751,0.00309115,0.410644,20.5412,137.587,0.22855,0.0,0.0
168,41.75,61.2282,74.1006,149.817,101.27,99.5874,0.00310529,0.435367,20.5059,137.517,0.154433,0.0,0.0
176,43.75,60.672,72.3696,148.047,101.336,99.6053,0.00322949,0.44463,20.476,137.457,0.158785,0.0,0.0
184,45.75,59.5497,69.6811,145.861,101.458,100.983,0.00330268,0.428302,20.4654,137.407,0.0431982,0.0,0.0
192,47.75,58.9047,67.7558,150.394,101.542,101.265,0.00324628,0.387503,20.4833,137.337,0.025183,0.0,0.0
200,49.75,58.7527,65.4134,151.622,101.601,102.145,0.00312826,0.337464,20.5318,137.347,-0.049161,0.0,0.0
208,51.75,58.1848,63.5018,146.864,101.655,101.614,0.00309214,0.293355,20.5898,137.287,0.00372291,0.0,0.0
216,53.75,57.405,62.0763,146.036,101.68,101.721,0.00335789,0.254752,20.6411,137.267,-0.0036876,0.0,0.0
224,55.75,56.5153,60.8051,150.378,101.708,102.232,0.00406972,0.220354,20.6805,137.287,-0.0473683,0.0,0.0
232,57.75,56.1208,59.5742,151.841,101.713,101.075,0.00511998,0.19365,20.7167,137.247,0.0579348,0.0,0.0
240,59.75,54.1123,57.1627,151.652,101.721,102.234,0.00608837,0.176149,20.7437,137.237,-0.0463512,0.0,0.0
248,61.75,53.2237,56.4421,148.426,101.682,101.107,0.00695512,0.164047,20.7635,137.197,0.0523308,0.0,0.0
256,63.75,53.1469,55.6524,146.574,101.66,101.258,0.00765348,0.157249,20.7777,137.137,0.0364645,0.0,0.0
264,65.75,52.6668,54.8105,149.264,101.628,102.441,0.00817088,0.153042,20.7867,137.137,-0.0734472,0.0,0.0
272,67.75,52.6438,54.5591,150.602,101.565,101.995,0.00833923,0.148388,20.7918,137.127,-0.038913,0.0,0.0
280,69.75,51.9064,54.0068,154.818,101.525,102.532,0.00818373,0.143083,20.7974,137.107,-0.0909541,0.0,0.0
288,71.75,51.1732,52.7814,150.056,101.472,101.458,0.00802155,0.138604,20.8037,137.117,0.00126567,0.0,0.0
296,73.75,51.254,52.7872,149.181,101.408,101.827,0.00777588,0.133647,20.811,137.087,-0.0379988,0.0,0.0
304,75.75,51.5146,52.1197,155.225,101.356,102.055,0.00749726,0.128752,20.817,137.037,-0.063337,0.0,0.0
312,77.75,50.5858,51.9163,150.465,101.294,101.605,0.00731394,0.124024,20.8225,137.027,-0.0282757,0.0,0.0
320,79.75,50.6129,52.5482,150.731,101.211,101.647,0.00722075,0.119608,20.8293,137.007,-0.0396297,0.0,0.0
328,81.75,50.3176,51.8926,153.741,101.152,102.584,0.00708006,0.116138,20.8354,136.997,-0.129518,0.0,0.0
336,83.75,50.5136,51.5852,149.901,101.088,101.149,0.00689324,0.11381,20.8383,136.977,-0.00557125,0.0,0.0
344,85.75,50.0094,51.2149,151.646,101.047,101.301,0.006734,0.111646,20.8406,136.957,-0.023095,0.0,0.0
352,87.75,49.6879,51.4032,150.199,100.98,101.411,0.00657453,0.109097,20.8446,136.937,-0.0392148,0.0,0.0
360,89.75,49.6429,51.1005,152.641,100.934,101.071,0.00640265,0.1064,20.8485,136.917,-0.0125194,0.0,0.0
368,91.75,49.3579,51.1667,152.877,100.878,101.846,0.00621179,0.104092,20.8513,136.906,-0.0880112,0.0,0.0
376,93.75,49.1904,50.9935,149.954,100.841,101.8,0.00614366,0.102336,20.8544,136.896,-0.0872082,0.0,0.0
384,95.75,48.9098,50.1466,151.826,100.773,101.524,0.00609779,0.101282,20.857,136.866,-0.0684685,0.0,0.0
392,97.75,49.4628,51.0946,152.672,100.728,101.978,0.00593029,0.0995065,20.8586,136.836,-0.11368,0.0,0.0
400,99.75,49.0465,50.6849,152.213,100.686,101.409,0.00572112,0.0978506,20.8602,136.826,-0.0659478,0.0,0.0
408,101.75,48.5679,50.6525,152.952,100.781,101.709,0.00554009,0.0960688,20.8628,136.756,-0.0845165,0.0,0.0
416,103.75,48.8528,50.808,149.534,100.847,101.724,0.00555312,0.0943125,20.8647,136.756,-0.0798582,0.0,0.0
424,105.75,48.5621,50.6257,147.399,100.922,102.042,0.00565709,0.0927705,20.8662,136.736,-0.101682,0.0,0.0
432,107.75,48.5027,50.3203,152.768,100.962,101.644,0.00571129,0.0912897,20.869,136.726,-0.062035,0.0,0.0
440,109.75,48.3318,50.0554,149.56,101.039,101.915,0.00566917,0.0904866,20.8714,136.696,-0.0795595,0.0,0.0
448,111.75,48.004,50.4632,151.068,101.068,102.43,0.00556041,0.0897044,20.8736,136.716,-0.123359,0.0,0.0
456,113.75,48.0629,49.991,156.224,101.073,102.586,0.00542322,0.0888022,20.8747,136.696,-0.136914,0.0,0.0
464,115.75,48.2101,50.258,154.729,101.098,101.899,0.00523291,0.0880618,20.8762,136.666,-0.0726925,0.0,0.0
472,117.75,48.4977,49.897,151.91,101.083,102.219,0.0050242,0.0874356,20.8771,136.646,-0.102962,0.0,0.0
480,119.75,48.5569,50.0491,153.637,101.05,102.085,0.00480299,0.0868383,20.8775,136.656,-0.0939323,0.0,0.0
488,121.75,48.779,50.1914,148.071,101.046,101.651,0.00460691,0.0858965,20.8777,136.646,-0.0550649,0.0,0.0
496,123.75,48.2431,49.7884,153.326,100.991,102.301,0.00456904,0.0854794,20.879,136.616,-0.118767,0.0,0.0
504,125.75,48.1324,49.9943,149.195,100.945,101.898,0.00469789,0.0852266,20.8796,136.626,-0.086632,0.0,0.0
512,127.75,47.7385,50.2928,150.026,100.892,101.389,0.00476833,0.084962,20.8799,136.656,-0.0453033,0.0,0.0
520,129.75,47.9025,50.0545,149.418,100.832,102.168,0.00461605,0.0843499,20.8805,136.666,-0.121299,0.0,0.0
528,131.75,47.8257,49.8398,151.805,100.727,101.838,0.00433424,0.0832125,20.8799,136.646,-0.101164,0.0,0.0
536,133.75,47.782,50.0513,153.022,100.648,102.126,0.0041618,0.0824792,20.8803,136.626,-0.134365,0.0,0.0
544,135.75,47.513,49.6928,153.505,100.58,102.237,0.00418455,0.0823137,20.8811,136.636,-0.150596,0.0,0.0
552,137.75,47.729,50.1259,149.886,100.468,101.047,0.00424836,0.0823045,20.8815,136.606,-0.0530329,0.0,0.0
560,139.75,47.8057,49.5393,154.51,100.408,102.129,0.00426686,0.0819988,20.8817,136.586,-0.156607,0.0,0.0
568,141.75,48.0011,50.0209,155.328,100.353,101.002,0.00423343,0.0817427,20.8817,136.496,-0.0594381,0.0,0.0
576,143.75,47.4575,49.591,156.405,100.392,102.236,0.00409056,0.0814297,20.8818,136.506,-0.167803,0.0,0.0
584,145.75,47.6995,49.7784,150.747,100.416,101.211,0.00395102,0.0808082,20.8827,136.506,-0.0727152,0.0,0.0
592,147.75,47.6713,49.5462,149.164,100.463,101.205,0.00387339,0.0802998,20.8834,136.526,-0.067775,0.0,0.0
600,149.75,47.6177,49.8799,148.5,100.495,101.548,0.00376223,0.0790233,20.8838,136.536,-0.0960394,0.0,0.0
608,151.75,47.1422,49.8032,158.096,100.542,101.886,0.00364251,0.0776732,20.8855,136.496,-0.122405,0.0,0.0
616,153.75,47.5356,49.9675,156.243,100.638,101.482,0.00353302,0.0773261,20.8879,136.486,-0.0770402,0.0,0.0
624,155.75,47.2796,49.9492,152.677,100.701,102.674,0.00340396,0.0771137,20.8895,136.466,-0.178859,0.0,0.0
632,157.75,47.0944,49.7871,151.894,100.771,101.71,0.00327305,0.0767694,20.8908,136.456,-0.0854929,0.0,0.0
640,159.75,47.687,49.9101,155.599,100.834,101.533,0.00306508,0.0763595,20.8921,136.466,-0.0636756,0.0,0.0
648,161.75,47.6626,50.1797,153.909,100.879,102.274,0.00295371,0.0756111,20.8926,136.446,-0.126597,0.0,0.0
656,163.75,47.6313,50.0961,151.957,100.942,102.293,0.00300459,0.0748358,20.8928,136.366,-0.122491,0.0,0.0
664,165.75,47.4099,50.1603,151.762,100.961,102.403,0.00299054,0.0740908,20.8942,136.366,-0.130707,0.0,0.0
672,167.75,47.5903,50.1452,146.848,101.015,101.706,0.0029555,0.073021,20.8951,136.346,-0.0628326,0.0,0.0
680,169.75,47.606,49.9403,157.15,101.027,101.812,0.00295761,0.0720032,20.8965,136.356,-0.0713404,0.0,0.0
688,171.75,47.5373,50.1343,149.781,101.057,102.242,0.00288248,0.0712196,20.898,136.346,-0.10737,0.0,0.0
696,173.75,47.5268,50.0968,152.333,101.082,101.352,0.0027342,0.0705281,20.8991,136.326,-0.0245579,0.0,0.0
704,175.75,47.2799,49.8176,152.068,101.088,101.94,0.00264429,0.0699349,20.8996,136.316,-0.0773111,0.0,0.0
712,177.75,47.5259,49.7764,149.044,101.073,101.942,0.00259124,0.0692083,20.8997,136.326,-0.0789655,0.0,0.0