File: 01_Data/Nylon_Bourke/STA/N2/10K_min/Nylon_Bourke_STA_N2_10KData_250506_R2.csv
Temp./C,Time/min,DSC/(mW/mg),Mass loss/mg
50.0,0.0,0.962591,-0.0229742
52.5,0.326125,1.03432,-0.0250135
55,0.633231,1.10517,-0.0261253
57.5,0.939313,1.17271,-0.0277807
60,1.2319,1.23045,-0.0300804
62.5,1.51583,1.27404,-0.0299658
65,1.79535,1.32177,-0.0329255
67.5,2.06846,1.35713,-0.0339444
70,2.33714,1.39051,-0.0366104
72.5,2.6025,1.41702,-0.0365613
75,2.86474,1.42872,-0.03656
77.5,3.12493,1.42177,-0.0378736
80,3.38189,1.42947,-0.0398643
82.5,3.6362,1.42912,-0.0406134
85,3.88874,1.42207,-0.0405806
87.5,4.14076,1.41277,-0.0411697
90,4.3885,1.40923,-0.0427225
92.5,4.63614,1.40533,-0.0451202
95,4.88335,1.40617,-0.0438
97.5,5.12741,1.39259,-0.0428133
100,5.3699,1.4065,-0.0451441
102.5,5.61367,1.40494,-0.04512
105,5.85536,1.41002,-0.0449001
107.5,6.09858,1.42056,-0.04655
110,6.33954,1.43395,-0.0452368
112.5,6.58033,1.43429,-0.0452301
115,6.82124,1.44401,-0.0452361
117.5,7.06074,1.46495,-0.0454131
120,7.30217,1.47976,-0.0465539
122.5,7.54263,1.50214,-0.0465521
125,7.78122,1.53661,-0.0463607
127.5,8.02194,1.58255,-0.0465499
130,8.26065,1.65097,-0.0472101
132.5,8.49898,1.74551,-0.04786
135,8.7388,1.82001,-0.0465443
137.5,8.97708,1.84564,-0.0463102
140,9.21314,1.82064,-0.0476445
142.5,9.44928,1.80206,-0.04786
145,9.68663,1.77569,-0.04787
147.5,9.92268,1.76647,-0.04787
150,10.1587,1.75996,-0.0478692
152.5,10.3947,1.76449,-0.04786
155,10.6299,1.74471,-0.0474945
157.5,10.8642,1.70053,-0.0495201
160,11.0989,1.64319,-0.0482
162.5,11.3321,1.5291,-0.04852
165,11.5663,1.35277,-0.0482
167.5,11.7982,1.17064,-0.0481905
170,12.0342,1.20228,-0.0482
172.5,12.2731,1.4198,-0.0495042
175,12.5101,1.59892,-0.04852
177.5,12.7473,1.70244,-0.0482
180,12.9844,1.76727,-0.0482
182.5,13.2211,1.80373,-0.04951
185,13.4532,1.84171,-0.0495321
187.5,13.6912,1.85239,-0.04951
190,13.9266,1.87222,-0.0492041
192.5,14.1609,1.90001,-0.0498012
195,14.3962,1.91862,-0.0511594
197.5,14.6317,1.92937,-0.0495165
200,14.8665,1.94624,-0.0495101
202.5,15.102,1.96283,-0.0514921
205,15.3367,1.98216,-0.0501698
207.5,15.5716,2,-0.0505037
210,15.807,2.01954,-0.0505099
212.5,16.0418,2.04468,-0.0531418
215,16.2786,2.08139,-0.0534662
217.5,16.5144,2.11791,-0.05347
220,16.7481,2.16134,-0.0528096
222.5,16.9855,2.21987,-0.0531703
225,17.2219,2.28186,-0.0534041
227.5,17.4571,2.35897,-0.05643
230,17.6949,2.43802,-0.05511
232.5,17.9317,2.51767,-0.0564298
235,18.1691,2.60837,-0.05643
237.5,18.4065,2.71202,-0.0574199
240,18.6431,2.84118,-0.05742
242.5,18.8804,2.94399,-0.05643
245,19.117,2.92336,-0.05774
247.5,19.3514,2.76609,-0.05774
250,19.5849,2.52992,-0.05906
252.5,19.8207,2.41116,-0.05906
255,20.055,2.37628,-0.060382
257.5,20.2894,2.23766,-0.06159
260,20.5246,2.14708,-0.0615804
262.5,20.7609,2.12817,-0.0612695
265,20.997,2.13486,-0.06225
267.5,21.2336,2.12797,-0.0616128
270,21.4693,2.12655,-0.06291
272.5,21.7034,2.13483,-0.06291
275,21.9433,2.14103,-0.0631022
277.5,22.1811,2.14394,-0.06653
280,22.417,2.15179,-0.0652124
282.5,22.655,2.13025,-0.06456
285,22.8934,2.1454,-0.06686
287.5,23.1302,2.13657,-0.06686
290,23.3684,2.14271,-0.0681732
292.5,23.6064,2.14562,-0.06817
295,23.8433,2.14771,-0.0696903
297.5,24.0804,2.13929,-0.0708102
300,24.3183,2.13869,-0.06949
302.5,24.5573,2.13206,-0.0711399
305,24.7949,2.13977,-0.0722273
307.5,25.0331,2.14208,-0.0718
310,25.269,2.13274,-0.074497
312.5,25.5089,2.14464,-0.0757563
315,25.7476,2.13596,-0.0741191
317.5,25.9858,2.13158,-0.07378
320,26.2251,2.15068,-0.07476
322.5,26.4645,2.16131,-0.0747694
325,26.7026,2.15592,-0.0760908
327.5,26.9415,2.1609,-0.0777246
330,27.1814,2.15844,-0.07773
332.5,27.4197,2.1439,-0.0764222
335,27.659,2.13522,-0.0796937
337.5,27.8988,2.1297,-0.0783809
340,28.1369,2.13599,-0.08003
342.5,28.3788,2.12025,-0.0839648
345,28.6176,2.13479,-0.0839898
347.5,28.8584,2.13065,-0.0826672
350,29.099,2.15119,-0.08135
352.5,29.3393,2.1538,-0.0853139
355,29.5794,2.16932,-0.0845438
357.5,29.82,2.1813,-0.08629
360,30.0601,2.19642,-0.0903744
362.5,30.3016,2.23066,-0.0892625
365,30.5437,2.26073,-0.0906849
367.5,30.786,2.30009,-0.091753
370,31.0265,2.35075,-0.0920004
372.5,31.2682,2.41114,-0.092
375,31.5117,2.49056,-0.0946391
377.5,31.7545,2.59843,-0.0966854
380,31.9979,2.7363,-0.102539
382.5,32.2409,2.93787,-0.10386
385,32.4845,3.13438,-0.104905
387.5,32.7299,3.35,-0.11451
390,32.9754,3.64356,-0.124102
392.5,33.2209,3.90462,-0.133784
395,33.466,4.2276,-0.155379
397.5,33.7135,4.59086,-0.172495
400,33.962,5.0202,-0.198352
402.5,34.2105,5.53496,-0.232063
405,34.4604,6.06798,-0.277449
407.5,34.709,6.78394,-0.335389
410,34.9658,7.73087,-0.411752
412.5,35.2197,8.70229,-0.508133
415,35.4771,9.88856,-0.644462
417.5,35.736,11.1714,-0.814546
420,35.9971,12.4836,-1.03959
422.5,36.2566,13.7616,-1.31356
425,36.5134,14.7535,-1.64724
427.5,36.7638,15.1439,-2.02685
430,37.0069,14.869,-2.43039
432.5,37.2417,13.8135,-2.83487
435,37.4642,11.9443,-3.20809
437.5,37.6789,9.34656,-3.52035
440,37.8838,6.01494,-3.75121
442.5,38.0807,1.97545,-3.87149
445,38.3036,0.526619,-3.90772
447.5,38.5416,0.275362,-3.92126
450,38.7837,0.182148,-3.9265
452.5,39.0255,0.120402,-3.93116
455,39.2696,0.0816206,-3.93571
457.5,39.5146,0.0539439,-3.93428
460,39.7591,0.0341878,-3.93811
462.5,40.0051,0.014574,-3.93967
465,40.2503,-0.00875248,-3.93956
467.5,40.495,-0.032759,-3.94285
470,40.7399,-0.0508633,-3.94416
472.5,40.9847,-0.051606,-3.94444
475,41.2303,-0.0570687,-3.94307
477.5,41.4761,-0.0736588,-3.94341
480,41.7204,-0.0695834,-3.94109
482.5,41.967,-0.076755,-3.94378
485,42.2127,-0.0880175,-3.94528
487.5,42.4577,-0.0842334,-3.94505
490,42.7042,-0.0936068,-3.94505
492.5,42.95,-0.0850397,-3.94362
495,43.1967,-0.102925,-3.94099
497.5,43.4429,-0.106058,-3.94362
500,43.6893,-0.0987664,-3.9423
502.5,43.9363,-0.0927219,-3.94493
505,44.1833,-0.120344,-3.9423
507.5,44.4312,-0.115195,-3.94522
510,44.6786,-0.119396,-3.94462
512.5,44.9254,-0.119316,-3.94131
515,45.1716,-0.127374,-3.94394
517.5,45.4185,-0.130306,-3.9445
520,45.6653,-0.130259,-3.94252
522.5,45.9129,-0.125878,-3.94569
525,46.1604,-0.121817,-3.94417
527.5,46.4081,-0.123077,-3.94285
530,46.6554,-0.128558,-3.9445
532.5,46.9032,-0.108252,-3.94174
535,47.149,-0.10714,-3.94438
537.5,47.3989,-0.0946916,-3.94438
540,47.6468,-0.0947209,-3.94294
542.5,47.8939,-0.0924331,-3.94273
545,48.1417,-0.0833424,-3.94405
547.5,48.3888,-0.0786927,-3.94531
550,48.6374,-0.0832359,-3.94306
552.5,48.8846,-0.0752345,-3.94164
555,49.1324,-0.0830567,-3.94636
557.5,49.3814,-0.0937693,-3.94625
560,49.6286,-0.0926009,-3.94559
562.5,49.8777,-0.0975921,-3.94263
565,50.1237,-0.0902793,-3.94966
567.5,50.3734,-0.0923198,-3.94361
570,50.6211,-0.0867743,-3.94625
572.5,50.8676,-0.098382,-3.94494
575,51.1162,-0.102195,-3.94757
577.5,51.3651,-0.0848548,-3.9488
580,51.6129,-0.0985556,-3.9452
582.5,51.861,-0.101461,-3.95032
585,52.1101,-0.0741638,-3.9491
587.5,52.3588,-0.0878574,-3.94662
590,52.607,-0.0865593,-3.94855
592.5,52.8566,-0.0762068,-3.94691
595,53.1057,-0.061766,-3.94691
597.5,53.3541,-0.0580647,-3.94823
600,53.6039,-0.0404303,-3.94559
602.5,53.853,-0.0438321,-3.94812
605,54.1037,-0.0369259,-3.94845
607.5,54.3516,-0.0218263,-3.94845
610,54.6025,-0.00810522,-3.94516
612.5,54.8529,-0.00500291,-3.94911
615,55.1031,0.00309037,-3.94715
617.5,55.353,0.0091624,-3.9482
620,55.6028,0.0231229,-3.94713
622.5,55.8523,0.025054,-3.94516
625,56.1021,0.0441499,-3.94647
627.5,56.3522,0.0628486,-3.94647
630,56.6029,0.0609544,-3.94176
632.5,56.8545,0.0663347,-3.94739
635,57.1044,0.0666396,-3.94504
637.5,57.3551,0.0597592,-3.94953
640,57.6058,0.0707217,-3.94219
642.5,57.8541,0.0570688,-3.94624
645,58.1062,0.0676035,-3.94513
647.5,58.3567,0.0595042,-3.94658
650,58.6069,0.0618405,-3.94615
652.5,58.8565,0.0683744,-3.94516
655,59.1076,0.0692549,-3.94384
657.5,59.358,0.0612953,-3.94614
660,59.6092,0.0489065,-3.94811
662.5,59.8586,0.0585336,-3.94592
665,60.1094,0.05087,-3.94454
667.5,60.3576,0.0527076,-3.94774
670,60.6111,0.0464196,-3.94372
672.5,60.8613,0.0434076,-3.9423
675,61.1117,0.0328805,-3.94724
677.5,61.3641,0.0406685,-3.94395
680,61.615,0.0456137,-3.94822
682.5,61.8677,0.0431503,-3.94373
685,62.119,0.0390525,-3.94288
687.5,62.3708,0.0431029,-3.94655
690,62.6219,0.0448755,-3.94658
692.5,62.8728,0.0519296,-3.9479
695,63.1259,0.0472828,-3.94658
697.5,63.3769,0.0353214,-3.94658
700,63.6303,0.0431431,-3.94272
702.5,63.8837,0.0352843,-3.94691
705,64.1342,0.0356606,-3.94439
707.5,64.3881,0.0256041,-3.94889
710,64.6411,0.0209662,-3.9443
712.5,64.8946,0.0112634,-3.94862
715,65.146,0.0106507,-3.94669
717.5,65.3992,-0.000872523,-3.94403
720,65.6479,0.00450643,-3.9467
722.5,65.9033,0.00290125,-3.94801
725,66.1566,0.000349441,-3.94867
727.5,66.4095,0.00111335,-3.94233
730,66.6627,0.00280699,-3.948
732.5,66.9153,-0.00170409,-3.94666
735,67.1673,-0.00711775,-3.94669
737.5,67.42,-0.0244586,-3.94795
740,67.6724,-0.0135851,-3.94669
742.5,67.9256,-0.0229535,-3.94838
745,68.1797,-0.0239277,-3.94881
747.5,68.4324,-0.0361644,-3.94889
750,68.6857,-0.0299921,-3.94756
752.5,68.9393,-0.031685,-3.94625
755,69.1926,-0.0341074,-3.94493
757.5,69.446,-0.0306119,-3.94738
760,69.6966,-0.031833,-3.94625
762.5,69.9506,-0.0314938,-3.9479
765,70.2031,-0.0431,-3.94724
767.5,70.4552,-0.0306518,-3.94581
770,70.7078,-0.0405466,-3.94724
772.5,70.9611,-0.0361104,-3.94548
775,71.213,-0.0411949,-3.94813
777.5,71.4668,-0.0329746,-3.94943
780,71.7196,-0.0397166,-3.94779
782.5,71.9723,-0.0359269,-3.94592
785,72.226,-0.0449227,-3.94889
787.5,72.4787,-0.040406,-3.94851
790,72.7328,-0.0377824,-3.94465