File: 01_Data/Nylon_Bourke/STA/N2/10K_min/Nylon_Bourke_STA_N2_10KData_250505_R1.csv
Temp./C,Time/min,DSC/(mW/mg),Mass loss/mg
50.0,0.0,0.915112,-0.0338009
52.5,0.323433,0.98298,-0.0351927
55,0.635527,1.06425,-0.0366585
57.5,0.936978,1.11826,-0.0400875
60,1.22937,1.17393,-0.0389724
62.5,1.51447,1.22666,-0.0405095
65,1.79203,1.27509,-0.0431487
67.5,2.06447,1.31724,-0.04446
70,2.33397,1.3479,-0.0455406
72.5,2.59927,1.36779,-0.04587
75,2.86224,1.37859,-0.048307
77.5,3.12023,1.3785,-0.0496304
80,3.37787,1.3772,-0.0515708
82.5,3.63162,1.36406,-0.05226
85,3.88497,1.36709,-0.0538878
87.5,4.13578,1.36327,-0.0551355
90,4.38495,1.36324,-0.0552199
92.5,4.63054,1.36418,-0.0552191
95,4.87693,1.35652,-0.05617
97.5,5.12186,1.36661,-0.0564158
100,5.36438,1.37858,-0.058695
102.5,5.60758,1.37551,-0.057536
105,5.84828,1.39255,-0.0601652
107.5,6.09135,1.3983,-0.058337
110,6.33071,1.42251,-0.0569792
112.5,6.57311,1.43477,-0.0596409
115,6.81427,1.45406,-0.0609314
117.5,7.05489,1.46966,-0.0596055
120,7.29435,1.49418,-0.0618366
122.5,7.5338,1.52265,-0.0622392
125,7.774,1.54682,-0.0609299
127.5,8.01498,1.59131,-0.0612594
130,8.25395,1.66693,-0.0635848
132.5,8.49376,1.75875,-0.06225
135,8.73237,1.85565,-0.0622492
137.5,8.96981,1.87788,-0.06225
140,9.20712,1.86409,-0.0635472
142.5,9.44268,1.84241,-0.0622314
145,9.67728,1.82839,-0.06291
147.5,9.91372,1.81883,-0.0648781
150,10.1488,1.81359,-0.06356
152.5,10.3851,1.8077,-0.06258
155,10.6212,1.79241,-0.06423
157.5,10.8557,1.76145,-0.0649056
160,11.0892,1.69745,-0.0636536
162.5,11.3246,1.59228,-0.0638891
165,11.5559,1.40403,-0.06357
167.5,11.7912,1.2445,-0.06489
170,12.0268,1.3004,-0.0648733
172.5,12.2644,1.51382,-0.06642
175,12.5017,1.68491,-0.0670799
177.5,12.7393,1.78357,-0.0644503
180,12.9745,1.84088,-0.06576
182.5,13.2101,1.8778,-0.0653198
185,13.4451,1.9251,-0.06664
187.5,13.6805,1.94264,-0.06532
190,13.9154,1.96226,-0.06598
192.5,14.151,1.98139,-0.06598
195,14.3863,1.99815,-0.0669729
197.5,14.622,2.01915,-0.0682823
200,14.8576,2.03837,-0.06873
202.5,15.0933,2.06298,-0.0674111
205,15.3284,2.08187,-0.0674
207.5,15.5638,2.10626,-0.0673997
210,15.7996,2.1346,-0.06839
212.5,16.0353,2.16541,-0.0704103
215,16.2688,2.19534,-0.06906
217.5,16.5073,2.22642,-0.067634
220,16.7408,2.27567,-0.0687294
222.5,16.9786,2.3311,-0.06873
225,17.2132,2.40807,-0.06839
227.5,17.4481,2.47412,-0.0696
230,17.6874,2.55188,-0.0696
232.5,17.9235,2.64189,-0.0729575
235,18.1607,2.74202,-0.0710355
237.5,18.398,2.84345,-0.0710332
240,18.6362,2.97167,-0.07234
242.5,18.8732,3.0676,-0.0723617
245,19.1093,3.03289,-0.0736596
247.5,19.3441,2.87267,-0.0723472
250,19.577,2.64359,-0.0749806
252.5,19.8133,2.53498,-0.0749801
255,20.0484,2.49942,-0.0746583
257.5,20.283,2.35512,-0.07367
260,20.5186,2.29511,-0.076119
262.5,20.7557,2.27684,-0.07695
265,20.9921,2.28173,-0.07695
267.5,21.2289,2.27089,-0.07695
270,21.4674,2.27585,-0.07695
272.5,21.704,2.28695,-0.0776195
275,21.9419,2.29093,-0.0811903
277.5,22.1772,2.29517,-0.07706
280,22.4167,2.30624,-0.0775011
282.5,22.6548,2.30345,-0.076519
285,22.8906,2.30661,-0.07915
287.5,23.1303,2.30147,-0.0770114
290,23.3682,2.3087,-0.08113
292.5,23.6054,2.31357,-0.0811263
295,23.8422,2.33127,-0.08047
297.5,24.082,2.31298,-0.0804707
300,24.3202,2.31135,-0.0818046
302.5,24.5561,2.31459,-0.0841095
305,24.795,2.31209,-0.0849193
307.5,25.0338,2.31716,-0.08366
310,25.2719,2.31164,-0.08366
312.5,25.51,2.30833,-0.08531
315,25.7491,2.3043,-0.08498
317.5,25.9873,2.30393,-0.0849801
320,26.2263,2.29899,-0.0863791
322.5,26.465,2.29486,-0.0864004
325,26.7048,2.30169,-0.0877098
327.5,26.9441,2.29107,-0.0877145
330,27.1841,2.279,-0.08837
332.5,27.4235,2.28899,-0.08969
335,27.6643,2.29797,-0.09134
337.5,27.905,2.2996,-0.08969
340,28.1448,2.29953,-0.0903782
342.5,28.3848,2.31394,-0.09167
345,28.6261,2.31215,-0.093615
347.5,28.8652,2.3227,-0.0916706
350,29.1061,2.32804,-0.0942891
352.5,29.347,2.34831,-0.09562
355,29.5878,2.35181,-0.09694
357.5,29.8292,2.36647,-0.0959498
360,30.0697,2.39416,-0.0969363
362.5,30.3122,2.41305,-0.09958
365,30.5534,2.44439,-0.0995813
367.5,30.7954,2.46901,-0.0995578
370,31.038,2.51843,-0.100887
372.5,31.2795,2.57593,-0.101538
375,31.5223,2.64648,-0.105171
377.5,31.7651,2.74253,-0.10682
380,32.0089,2.8531,-0.10945
382.5,32.2513,3.00802,-0.111354
385,32.4957,3.21675,-0.116197
387.5,32.7408,3.4461,-0.124482
390,32.9842,3.6824,-0.128881
392.5,33.2311,3.97504,-0.140303
395,33.4768,4.2729,-0.154038
397.5,33.7227,4.60217,-0.173267
400,33.9693,4.98347,-0.197945
402.5,34.2169,5.43615,-0.231189
405,34.4666,5.91218,-0.269618
407.5,34.7157,6.57759,-0.324433
410,34.9672,7.28744,-0.391873
412.5,35.2209,8.21269,-0.483716
415,35.4767,9.19102,-0.599035
417.5,35.7332,10.3616,-0.750775
420,35.992,11.5282,-0.945212
422.5,36.2517,12.7698,-1.18835
425,36.5081,13.7756,-1.48698
427.5,36.7618,14.5035,-1.83406
430,37.0082,14.583,-2.21391
432.5,37.2468,13.9971,-2.61151
435,37.478,12.7608,-2.9902
437.5,37.6996,10.8015,-3.33671
440,37.9133,8.07338,-3.61893
442.5,38.12,4.92052,-3.81293
445,38.3234,1.49145,-3.90138
447.5,38.555,0.740369,-3.92486
450,38.7954,0.602428,-3.9341
452.5,39.0384,0.545729,-3.9398
455,39.2819,0.513012,-3.94301
457.5,39.5257,0.484705,-3.94513
460,39.7705,0.46833,-3.94691
462.5,40.0147,0.454701,-3.94822
465,40.2589,0.432327,-3.95086
467.5,40.5038,0.412487,-3.94954
470,40.7492,0.413443,-3.95053
472.5,40.9933,0.399278,-3.95053
475,41.2366,0.400606,-3.95023
477.5,41.4849,0.402299,-3.95251
480,41.7287,0.405598,-3.95349
482.5,41.9755,0.40357,-3.95129
485,42.2187,0.400061,-3.95152
487.5,42.4668,0.408113,-3.9502
490,42.7138,0.403006,-3.95182
492.5,42.9601,0.388936,-3.94889
495,43.206,0.39118,-3.95119
497.5,43.4537,0.386825,-3.95119
500,43.7001,0.391121,-3.95227
502.5,43.946,0.393848,-3.95152
505,44.1937,0.378499,-3.94968
507.5,44.4393,0.390214,-3.95455
510,44.6861,0.384261,-3.95096
512.5,44.9332,0.391845,-3.95097
515,45.1798,0.38878,-3.95229
517.5,45.4288,0.386873,-3.95031
520,45.6754,0.379676,-3.95031
522.5,45.9227,0.367514,-3.95293
525,46.1705,0.364933,-3.95195
527.5,46.4189,0.35528,-3.95195
530,46.6667,0.354971,-3.95195
532.5,46.915,0.350831,-3.95163
535,47.1621,0.34393,-3.95031
537.5,47.4107,0.351733,-3.95031
540,47.6589,0.323313,-3.95295
542.5,47.9067,0.330509,-3.95295
545,48.155,0.33348,-3.95018
547.5,48.4036,0.329403,-3.95164
550,48.6519,0.325561,-3.95262
552.5,48.9,0.310028,-3.9513
555,49.1477,0.311109,-3.95297
557.5,49.3961,0.300374,-3.9529
560,49.6444,0.298583,-3.95426
562.5,49.8934,0.296152,-3.95163
565,50.1428,0.306353,-3.95162
567.5,50.3936,0.296668,-3.95328
570,50.6421,0.289134,-3.95295
572.5,50.8914,0.288529,-3.95295
575,51.1425,0.266857,-3.9545
577.5,51.3892,0.260605,-3.95426
580,51.6405,0.240172,-3.95496
582.5,51.8902,0.242297,-3.95261
585,52.1392,0.22468,-3.95672
587.5,52.3894,0.214684,-3.95492
590,52.6395,0.20062,-3.95441
592.5,52.8891,0.197491,-3.95623
595,53.139,0.172243,-3.95393
597.5,53.3897,0.168145,-3.95495
600,53.6393,0.145098,-3.9547
602.5,53.8898,0.150327,-3.95294
605,54.1387,0.141984,-3.95328
607.5,54.3907,0.144808,-3.95296
610,54.6414,0.142805,-3.95426
612.5,54.893,0.1411,-3.95415
615,55.1448,0.156035,-3.95357
617.5,55.3956,0.162238,-3.95513
620,55.6474,0.161379,-3.95283
622.5,55.8978,0.169241,-3.95152
625,56.153,0.180334,-3.95174
627.5,56.4074,0.176429,-3.95223
630,56.662,0.180226,-3.95372
632.5,56.9166,0.174202,-3.95108
635,57.1693,0.172832,-3.95108
637.5,57.4219,0.171702,-3.95076
640,57.6737,0.162842,-3.95075
642.5,57.9243,0.161521,-3.9547
645,58.1731,0.157843,-3.95208
647.5,58.4257,0.161738,-3.95338
650,58.6757,0.167238,-3.9547
652.5,58.9267,0.168277,-3.95075
655,59.1773,0.17485,-3.95239
657.5,59.43,0.18376,-3.9524
660,59.6832,0.180938,-3.95438
662.5,59.9354,0.179551,-3.95349
665,60.1874,0.191401,-3.95208
667.5,60.4397,0.19587,-3.95207
670,60.6923,0.19621,-3.95125
672.5,60.9456,0.19709,-3.95174
675,61.1992,0.204694,-3.95305
677.5,61.4517,0.206959,-3.95305
680,61.7064,0.228677,-3.94944
682.5,61.9601,0.229887,-3.95209
685,62.2146,0.225887,-3.95338
687.5,62.468,0.219607,-3.95207
690,62.7206,0.219763,-3.95207
692.5,62.973,0.208306,-3.95372
695,63.2242,0.196745,-3.95372
697.5,63.4763,0.191366,-3.9524
700,63.7274,0.174438,-3.95503
702.5,63.9785,0.151682,-3.9524
705,64.2327,0.144097,-3.95239
707.5,64.4845,0.12607,-3.95272
710,64.7366,0.117453,-3.9527
712.5,64.9897,0.100553,-3.9524
715,65.2428,0.0897464,-3.95273
717.5,65.4935,0.0754868,-3.95068
720,65.7453,0.0629078,-3.95272
722.5,65.9984,0.0417904,-3.95339
725,66.2507,0.0328707,-3.95273
727.5,66.502,0.0239958,-3.95223
730,66.7554,-0.0037403,-3.95075
732.5,67.0081,-0.0136,-3.95076
735,67.2614,-0.0263823,-3.95075
737.5,67.5155,-0.0286602,-3.95075
740,67.7692,-0.029767,-3.94976
742.5,68.0229,-0.03783,-3.95202
745,68.2767,-0.0380802,-3.9522
747.5,68.5311,-0.0556471,-3.94922
750,68.7847,-0.0661089,-3.949
752.5,69.0378,-0.0812096,-3.95031
755,69.2915,-0.0865234,-3.94866
757.5,69.5441,-0.0982915,-3.95031
760,69.7975,-0.0982362,-3.9513
762.5,70.0496,-0.104709,-3.94998
765,70.3051,-0.100925,-3.9513
767.5,70.5587,-0.107044,-3.95229
770,70.8119,-0.104257,-3.94957
772.5,71.0642,-0.105359,-3.95261
775,71.3172,-0.104911,-3.95261
777.5,71.5697,-0.0986655,-3.95129
780,71.8247,-0.114503,-3.95261
782.5,72.0769,-0.117546,-3.9513
785,72.3297,-0.115708,-3.95263
787.5,72.5852,-0.116797,-3.95163
790,72.8379,-0.114356,-3.95262