File: 01_Data/Polyisocyanurate_Spray_Foam_Insulation/Cone/Polyisocyanurate_Spray_Foam_Insulation_Cone_HF75Scan_241113_R2.csv
Names,Time,Stack TC,Smoke TC,Exh Press,Smoke Comp,Smoke Meas,CO Meter,CO2 Meter,O2 Meter,Sample Mass,Ext Coeff,Start Test,Flame Verif
Chan Gain,,500,500,1,1,1,1,1,1,1,1,1.0,1.0
Offset,,0,0,0.138019,0,0,0,0,0,0,0,0.0,0.0
Gain,,1,1,25.011,12.4314,2004.68,1,1,1,1.00093,0.957506,1.0,1.0
Units,sec,C,C,Pa,%,%,%,%,%,g,/m,,
Baseline,,54.6443,56.4743,158.974,98.7977,99.2179,0.000239213,0.0414949,20.9507,-445.296,-0.0351932,,
7,1.5,52.9593,55.0311,146.778,99.8265,57.5685,0.000599763,0.0493822,20.9442,43.0702,4.6234,0.0,1.0
14,3.25,56.5422,59.9581,127.277,100.263,40.9893,0.000592457,0.0492013,20.9449,42.4496,7.51294,0.0,1.0
21,5,61.3256,67.0527,122.416,100.297,38.6645,0.000601974,0.0487796,20.945,41.7089,8.00621,0.0,1.0
28,6.75,65.6431,73.7466,116.979,100.31,34.0761,0.000611319,0.0486061,20.9441,41.0783,9.06834,0.0,1.0
35,8.5,70.985,80.5,115.762,100.347,34.2597,0.000944808,0.0571816,20.9425,40.4377,9.02627,0.0,1.0
42,10.25,74.8774,87.2837,114.179,100.395,36.5844,0.00408494,0.12992,20.9408,39.9373,8.4789,0.0,0.0
49,12,79.154,92.6194,121.511,100.411,34.6879,0.0113807,0.268238,20.9135,39.2867,8.9273,0.0,0.0
56,13.75,82.5353,97.2952,127.389,100.434,34.9326,0.0283942,0.534279,20.7439,38.7061,8.87022,0.0,0.0
63,15.5,85.9371,102.07,127.749,100.495,33.342,0.050348,0.752699,20.4768,38.0155,9.2667,0.0,0.0
70,17.25,88.2015,105.67,127.47,100.519,35.4221,0.0717506,0.93162,20.0555,37.525,8.76047,0.0,0.0
77,19,91.1102,109.031,122.75,100.541,35.8503,0.0878677,1.04793,19.7281,36.9145,8.6613,0.0,0.0
84,20.75,93.2546,111.916,123.291,100.574,37.2574,0.097876,1.1212,19.5029,36.3239,8.34077,0.0,0.0
91,22.5,94.6398,114.421,116.764,100.615,35.7891,0.103125,1.16015,19.3629,35.8234,8.68183,0.0,0.0
98,24.25,96.7505,117.187,124.619,100.652,33.0973,0.105567,1.16401,19.2885,35.2529,9.34168,0.0,0.0
105,26,98.7148,120.069,118.903,100.691,34.015,0.106481,1.15095,19.2564,34.6023,9.11524,0.0,0.0
112,27.75,100.965,122.733,121.328,100.697,33.4644,0.106136,1.13002,19.2642,34.0318,9.25284,0.0,0.0
119,29.5,102.502,125.3,122.358,100.731,31.0172,0.104688,1.11362,19.2903,33.4512,9.89344,0.0,0.0
126,31.25,103.998,126.814,128.376,100.765,29.8549,0.102645,1.09788,19.321,32.9107,10.2171,0.0,0.0
133,33,105.285,128.741,121.743,100.808,27.836,0.101483,1.09582,19.3439,32.5304,10.8088,0.0,0.0
140,34.75,105.617,128.042,131.61,100.814,32.5467,0.101732,1.11203,19.3548,32.2701,9.49609,0.0,0.0
147,36.5,103.717,125.873,137.772,100.824,53.3472,0.103167,1.12959,19.339,32.12,5.34656,0.0,0.0
154,38.25,102.302,122.703,148.446,100.86,77.696,0.104542,1.13827,19.3107,32.12,2.19162,0.0,0.0
161,40,99.2785,118.702,152.144,100.905,85.2821,0.104662,1.13275,19.2934,32.0699,1.41284,0.0,0.0
168,41.75,96.8687,114.989,150.362,100.887,91.5834,0.101395,1.08527,19.2882,32.0599,0.812617,0.0,0.0
175,43.5,94.575,111.666,151.446,100.902,93.6023,0.092115,0.986881,19.3218,32.0699,0.630739,0.0,0.0
182,45.25,91.8918,108.256,153.257,100.907,93.5411,0.0782786,0.820123,19.468,32.0599,0.636641,0.0,0.0
189,47,88.9891,103.96,151.904,100.921,95.0706,0.0624395,0.650137,19.6604,32.0499,0.501621,0.0,0.0
196,48.75,86.8882,101.034,151.178,100.938,95.6824,0.0476511,0.500965,19.8861,32.0799,0.449103,0.0,0.0
203,50.5,84.989,98.2977,154.86,100.943,96.9059,0.0321276,0.369543,20.1296,32.0299,0.342787,0.0,0.0
210,52.25,83.2581,96.077,153.446,100.926,95.7435,0.0218359,0.272314,20.3682,32.12,0.442755,0.0,0.0
217,54,81.9536,94.025,155.013,100.926,98.6801,0.015431,0.207684,20.5375,32.0499,0.188985,0.0,0.0
224,55.75,80.3153,91.6025,160.033,100.946,96.3553,0.0119242,0.16462,20.6576,31.9999,0.390898,0.0,0.0
231,57.5,78.68,89.3258,156.317,100.929,96.5389,0.0101401,0.139685,20.7411,31.9698,0.373496,0.0,0.0
238,59.25,77.6382,87.6855,151.768,100.924,96.9059,0.00925121,0.127208,20.7934,31.9498,0.34124,0.0,0.0
245,61,76.6431,86.5172,151.459,100.919,94.7035,0.00876,0.122077,20.8237,31.9398,0.533892,0.0,0.0
252,62.75,76.0652,84.5999,153.231,100.923,96.1106,0.00844526,0.119835,20.838,31.8798,0.410332,0.0,0.0
259,64.5,74.9582,83.4405,147.605,100.903,96.6,0.00819101,0.118305,20.8449,31.8697,0.366027,0.0,0.0
266,66.25,74.1812,82.4223,153.223,100.867,97.2118,0.0079667,0.117078,20.8491,31.8297,0.31,0.0,0.0
273,68,73.5983,80.8234,155.205,100.855,96.2941,0.00769562,0.115647,20.8523,31.8097,0.388718,0.0,0.0
280,69.75,72.6427,79.9517,153.342,100.859,96.9059,0.00746923,0.11475,20.8551,31.7997,0.335808,0.0,0.0
287,71.5,71.8112,78.9112,154.881,100.833,99.1083,0.00740143,0.114328,20.8576,31.7797,0.144938,0.0,0.0
294,73.25,71.7176,78.0123,154.62,100.83,97.1506,0.00742766,0.113945,20.8588,31.7396,0.312255,0.0,0.0
301,75,70.6543,77.1126,148.095,100.822,96.7836,0.00748003,0.113625,20.8596,31.7396,0.343323,0.0,0.0
308,76.75,70.2863,76.2218,153.033,100.796,97.7624,0.00745098,0.112569,20.861,31.7296,0.256653,0.0,0.0
315,78.5,69.9048,75.6567,158.686,100.778,98.6801,0.00730122,0.11191,20.8621,31.7196,0.176726,0.0,0.0
322,80.25,69.4671,74.8279,151.723,100.784,95.3765,0.00719294,0.111942,20.8633,31.6996,0.46317,0.0,0.0
329,82,69.2242,73.9021,154.557,100.739,98.2518,0.00723246,0.112052,20.864,31.6395,0.209998,0.0,0.0
336,83.75,68.6573,73.6555,152.394,100.718,98.313,0.00752226,0.111716,20.8643,31.6595,0.20303,0.0,0.0
343,85.5,68.1535,72.5189,153.002,100.696,96.7836,0.00774557,0.11093,20.8643,31.6195,0.332824,0.0,0.0
350,87.25,67.8338,72.582,151.361,100.704,97.273,0.00786489,0.109244,20.8647,31.6195,0.291185,0.0,0.0
357,89,66.9471,71.7422,157.289,100.662,97.273,0.00777253,0.107682,20.8659,31.6295,0.287609,0.0,0.0
364,90.75,67.4412,71.4042,148.204,100.639,96.1718,0.00759899,0.106391,20.8684,31.5695,0.381368,0.0,0.0
371,92.5,66.9534,71.1833,149.689,100.618,97.1506,0.00748456,0.105153,20.8696,31.5695,0.29454,0.0,0.0
378,94.25,66.842,70.6622,152.888,100.614,95.3765,0.00754459,0.104022,20.8711,31.5795,0.448994,0.0,0.0
385,96,66.0611,70.2197,148.648,100.587,95.8047,0.00771351,0.103139,20.8721,31.5294,0.409148,0.0,0.0
392,97.75,66.039,69.7293,153.912,100.562,96.1718,0.00791678,0.102397,20.8732,31.5194,0.374906,0.0,0.0
399,99.5,65.7522,69.2143,153.377,100.525,97.0283,0.00805981,0.101741,20.8743,31.5094,0.29733,0.0,0.0
406,101.25,65.2643,69.199,156.853,100.505,95.6212,0.00815365,0.100888,20.8751,31.5094,0.41841,0.0,0.0
413,103,65.4793,68.6124,151.245,100.496,95.7435,0.00823347,0.0997821,20.8764,31.4994,0.406907,0.0,0.0
420,104.75,65.3364,68.4772,149.21,100.457,99.7201,0.00828147,0.0979851,20.8789,31.4694,0.0618747,0.0,0.0
427,106.5,64.5024,67.972,153.899,100.431,96.6,0.00830045,0.096319,20.881,31.4594,0.32665,0.0,0.0
434,108.25,64.3192,67.6694,153.471,100.4,96.4165,0.0083246,0.0948116,20.883,31.3993,0.34002,0.0,0.0
441,110,64.417,67.5141,157.536,100.395,94.9482,0.00827567,0.0931855,20.885,31.3993,0.46853,0.0,0.0
448,111.75,64.2566,67.3154,155.404,100.369,95.8047,0.00812783,0.0915826,20.8864,31.4193,0.390945,0.0,0.0
455,113.5,63.9871,67.0925,155.525,100.325,94.3976,0.00796442,0.0897895,20.8889,31.4093,0.511504,0.0,0.0
462,115.25,63.9945,66.2516,152.547,100.32,94.6423,0.00783937,0.0882023,20.8911,31.3993,0.489378,0.0,0.0
469,117,63.6954,66.6312,154.299,100.291,96.3553,0.00776998,0.0871292,20.8935,31.3893,0.33627,0.0,0.0
476,118.75,63.6378,65.9267,155.463,100.385,94.3364,0.00779801,0.0857875,20.8952,31.3793,0.521935,0.0,0.0
483,120.5,63.4541,66.032,153.603,100.424,96.9671,0.00789983,0.0847202,20.8972,31.3693,0.294192,0.0,0.0
490,122.25,63.6146,65.542,150.052,100.482,95.3765,0.00800265,0.0837289,20.8982,31.3593,0.438029,0.0,0.0
497,124,63.2728,65.9637,160.3,100.541,97.5789,0.00810774,0.0828843,20.8989,31.3392,0.251197,0.0,0.0
504,125.75,62.938,65.8192,154.541,100.607,95.1318,0.00822763,0.0818438,20.9002,31.3292,0.46997,0.0,0.0
511,127.5,62.3165,65.3309,156.376,100.662,95.4988,0.00838051,0.0804447,20.9009,31.3392,0.442279,0.0,0.0
518,129.25,62.5704,65.0628,153.505,100.704,94.7035,0.00853065,0.0789291,20.9025,31.3092,0.516001,0.0,0.0
525,131,62.6577,65.0906,156.237,100.739,96.7224,0.00862708,0.0773386,20.9043,31.2892,0.341774,0.0,0.0
532,132.75,62.1459,64.4743,153.967,100.764,96.1718,0.00862302,0.0754213,20.905,31.2692,0.39181,0.0,0.0
539,134.5,62.4866,64.5313,154.202,100.802,95.6212,0.0085255,0.0740089,20.9064,31.2992,0.443197,0.0,0.0
546,136.25,61.8183,64.0525,158.684,100.82,99.353,0.0084324,0.0729234,20.9082,31.2892,0.123087,0.0,0.0
553,138,61.9773,64.2602,153.593,100.822,97.273,0.00832252,0.0721282,20.9101,31.2792,0.300988,0.0,0.0
560,139.75,61.9494,63.8748,153.279,100.868,97.5789,0.00816482,0.0708535,20.9111,31.2291,0.278408,0.0,0.0
567,141.5,61.9042,63.9706,154.431,100.875,97.5177,0.00799745,0.0697804,20.912,31.2392,0.284308,0.0,0.0
574,143.25,61.6353,63.8253,155.832,100.855,97.4565,0.00785572,0.0683142,20.9142,31.2191,0.287905,0.0,0.0
581,145,61.3388,63.7312,152.045,100.882,96.5389,0.00778578,0.0672425,20.9154,31.2091,0.369642,0.0,0.0
588,146.75,61.3408,63.7866,155.328,100.856,97.946,0.00774513,0.0664245,20.917,31.2091,0.245924,0.0,0.0
595,148.5,61.5131,63.7672,151.602,100.839,97.7012,0.00768972,0.0658884,20.918,31.2091,0.265545,0.0,0.0
602,150.25,61.3508,63.5027,151.377,100.817,98.6801,0.00759306,0.0655,20.9196,31.2091,0.179919,0.0,0.0
609,152,61.2795,63.2951,158.969,100.776,99.5366,0.00749878,0.0651743,20.9204,31.1991,0.10395,0.0,0.0
616,153.75,61.522,63.3131,153.174,100.74,98.8024,0.00742611,0.0647115,20.9208,31.1791,0.163155,0.0,0.0
623,155.5,60.9898,63.0341,155.447,100.697,97.1506,0.00742139,0.0642866,20.9212,31.1791,0.301124,0.0,0.0
630,157.25,60.6386,62.4265,154.656,100.665,98.0683,0.00747534,0.0636626,20.9215,31.1891,0.2195,0.0,0.0
637,159,60.663,63.0462,151.707,100.61,96.9059,0.00748653,0.0630127,20.9217,31.1691,0.315026,0.0,0.0
644,160.75,60.814,62.7871,155.537,100.535,98.986,0.00743474,0.0621178,20.9218,31.1391,0.130438,0.0,0.0
651,162.5,60.2459,63.0041,155.2,100.476,100.882,0.00732403,0.0613615,20.9237,31.1391,-0.0338768,0.0,0.0
658,164.25,60.4648,62.299,150.871,100.407,97.8236,0.00729521,0.0609205,20.9251,31.1391,0.218902,0.0,0.0
662,165.25,60.3665,62.9612,153.083,100.379,97.4565,0.00730519,0.0606879,20.9256,31.1591,0.24816,0.0,0.0