File: 01_Data/Polyisocyanurate_Spray_Foam_Insulation/Cone/Polyisocyanurate_Spray_Foam_Insulation_HRRPUA_25.csv
Time after Ignition,Polyisocyanurate_Spray_Foam_Insulation_R1,Polyisocyanurate_Spray_Foam_Insulation_R2,Mean,Std. Dev.
0.0,3.6,-0.2,1.7,2.7
0.5,3.5,-0.3,1.6,2.7
1.0,3.4,-0.3,1.5,2.6
1.5,3.3,-0.4,1.4,2.6
2.0,3.0,-0.5,1.3,2.5
2.5,2.8,-0.5,1.1,2.4
3.0,2.7,-0.8,0.9,2.5
3.5,2.5,-1.1,0.7,2.5
4.0,2.5,-1.1,0.7,2.5
4.5,2.4,-1.1,0.7,2.4
5.0,2.3,-1.0,0.6,2.4
5.5,2.3,-1.0,0.6,2.3
6.0,2.0,-1.0,0.5,2.1
6.5,1.8,-1.0,0.4,1.9
7.0,1.7,-0.8,0.4,1.8
7.5,1.7,-0.6,0.5,1.6
8.0,1.8,-0.4,0.7,1.6
8.5,1.8,-0.3,0.8,1.5
9.0,1.9,-0.2,0.9,1.5
9.5,1.9,-0.1,0.9,1.4
10.0,3.8,-0.0,1.9,2.7
10.5,6.9,3.3,5.1,2.5
11.0,14.1,6.1,10.1,5.6
11.5,24.6,16.2,20.4,6.0
12.0,27.8,24.8,26.3,2.1
12.5,45.1,44.2,44.6,0.7
13.0,59.1,58.7,58.9,0.3
13.5,71.1,81.5,76.3,7.4
14.0,86.0,99.2,92.6,9.3
14.5,101.0,112.4,106.7,8.1
15.0,122.2,132.2,127.2,7.1
15.5,133.1,148.8,141.0,11.1
16.0,150.6,163.0,156.8,8.7
16.5,165.3,176.9,171.1,8.2
17.0,176.8,190.0,183.4,9.3
17.5,186.5,202.6,194.6,11.4
18.0,197.8,215.4,206.6,12.4
18.5,207.1,229.2,218.2,15.6
19.0,215.2,238.1,226.6,16.2
19.5,226.3,233.7,230.0,5.2
20.0,230.2,254.5,242.4,17.1
20.5,234.2,258.7,246.4,17.3
21.0,238.8,265.7,252.2,19.1
21.5,240.6,278.2,259.4,26.6
22.0,242.4,274.1,258.2,22.4
22.5,248.4,282.3,265.4,24.0
23.0,250.4,286.8,268.6,25.8
23.5,246.3,286.2,266.3,28.2
24.0,254.4,284.3,269.4,21.1
24.5,256.2,293.7,275.0,26.5
25.0,260.4,298.9,279.6,27.3
25.5,262.6,299.2,280.9,25.9
26.0,261.9,301.0,281.5,27.6
26.5,263.8,294.3,279.0,21.5
27.0,264.3,299.5,281.9,24.9
27.5,262.5,302.7,282.6,28.4
28.0,260.9,307.2,284.1,32.7
28.5,266.9,308.9,287.9,29.7
29.0,267.4,311.0,289.2,30.8
29.5,266.7,308.7,287.7,29.7
30.0,270.6,309.7,290.1,27.7
30.5,264.5,316.4,290.4,36.7
31.0,273.1,315.7,294.4,30.1
31.5,275.0,317.0,296.0,29.8
32.0,270.3,315.9,293.1,32.3
32.5,270.6,321.8,296.2,36.2
33.0,271.0,321.8,296.4,35.9
33.5,269.6,312.9,291.3,30.6
34.0,270.7,327.2,299.0,39.9
34.5,268.7,317.0,292.8,34.2
35.0,271.3,313.3,292.3,29.7
35.5,273.1,317.9,295.5,31.7
36.0,274.6,323.5,299.0,34.5
36.5,276.9,319.5,298.2,30.1
37.0,280.1,317.2,298.7,26.2
37.5,278.2,321.4,299.8,30.6
38.0,278.2,314.3,296.3,25.5
38.5,276.1,321.8,299.0,32.4
39.0,277.4,318.1,297.8,28.8
39.5,278.7,327.6,303.1,34.5
40.0,284.7,326.0,305.3,29.2
40.5,284.9,324.0,304.5,27.6
41.0,287.6,322.2,304.9,24.4
41.5,280.3,330.5,305.4,35.5
42.0,283.4,318.7,301.0,25.0
42.5,285.9,323.0,304.5,26.3
43.0,278.6,330.4,304.5,36.6
43.5,280.8,320.9,300.9,28.4
44.0,279.7,317.8,298.7,27.0
44.5,277.7,320.0,298.8,30.0
45.0,276.8,318.3,297.5,29.3
45.5,278.5,317.2,297.9,27.4
46.0,281.8,325.9,303.8,31.2
46.5,275.8,322.8,299.3,33.2
47.0,276.0,326.0,301.0,35.4
47.5,283.9,334.9,309.4,36.0
48.0,288.3,336.5,312.4,34.1
48.5,289.2,335.5,312.4,32.7
49.0,287.3,335.5,311.4,34.1
49.5,290.0,341.3,315.6,36.2
50.0,287.7,340.0,313.8,37.0
50.5,290.1,337.3,313.7,33.4
51.0,290.2,343.3,316.7,37.6
51.5,281.1,349.0,315.1,48.0
52.0,280.1,349.7,314.9,49.2
52.5,274.8,337.8,306.3,44.5
53.0,284.5,352.4,318.4,48.1
53.5,288.5,359.3,323.9,50.1
54.0,274.2,361.4,317.8,61.7
54.5,280.8,362.5,321.7,57.8
55.0,280.4,361.2,320.8,57.1
55.5,278.8,364.9,321.8,60.9
56.0,271.6,375.9,323.7,73.7
56.5,281.6,372.5,327.1,64.3
57.0,278.0,377.0,327.5,70.0
57.5,277.5,372.1,324.8,66.9
58.0,282.1,368.1,325.1,60.8
58.5,281.8,364.2,323.0,58.3
59.0,282.8,371.1,327.0,62.5
59.5,274.1,365.8,320.0,64.8
60.0,280.2,350.3,315.2,49.6
60.5,286.0,353.8,319.9,48.0
61.0,275.1,354.1,314.6,55.8
61.5,278.7,341.9,310.3,44.7
62.0,277.2,348.2,312.7,50.2
62.5,283.4,341.0,312.2,40.7
63.0,278.1,352.6,315.4,52.7
63.5,283.0,338.4,310.7,39.2
64.0,287.4,342.9,315.1,39.2
64.5,283.5,339.0,311.3,39.3
65.0,279.5,347.8,313.6,48.3
65.5,282.0,343.0,312.5,43.1
66.0,283.5,341.9,312.7,41.3
66.5,279.7,346.2,313.0,47.0
67.0,285.1,348.2,316.6,44.6
67.5,290.1,353.8,321.9,45.0
68.0,278.8,354.3,316.6,53.3
68.5,284.8,358.9,321.9,52.4
69.0,287.2,357.8,322.5,49.9
69.5,281.5,363.8,322.7,58.1
70.0,286.1,358.6,322.4,51.3
70.5,289.6,361.0,325.3,50.5
71.0,281.8,367.5,324.6,60.6
71.5,282.5,362.4,322.5,56.5
72.0,291.6,363.4,327.5,50.7
72.5,291.2,366.3,328.8,53.1
73.0,294.5,361.4,327.9,47.3
73.5,289.7,365.3,327.5,53.5
74.0,293.3,357.7,325.5,45.6
74.5,288.7,359.6,324.2,50.2
75.0,292.0,355.3,323.7,44.7
75.5,288.6,354.7,321.6,46.7
76.0,288.2,349.7,318.9,43.5
76.5,288.7,349.4,319.0,42.9
77.0,293.7,340.9,317.3,33.3
77.5,284.6,340.1,312.4,39.3
78.0,284.2,347.1,315.7,44.5
78.5,287.6,333.0,310.3,32.0
79.0,283.3,331.3,307.3,33.9
79.5,282.7,329.2,305.9,32.8
80.0,284.1,324.7,304.4,28.7
80.5,279.7,318.6,299.1,27.5
81.0,282.5,305.6,294.1,16.3
81.5,281.3,299.8,290.6,13.1
82.0,279.7,294.8,287.3,10.7
82.5,280.0,298.3,289.1,12.9
83.0,279.7,283.5,281.6,2.7
83.5,278.4,281.8,280.1,2.4
84.0,273.4,283.1,278.2,6.9
84.5,275.6,276.7,276.1,0.8
85.0,271.6,278.3,275.0,4.8
85.5,269.0,271.9,270.4,2.0
86.0,274.2,270.9,272.5,2.3
86.5,272.5,271.5,272.0,0.7
87.0,272.8,257.8,265.3,10.6
87.5,276.6,255.2,265.9,15.2
88.0,270.0,249.0,259.5,14.8
88.5,271.9,240.1,256.0,22.5
89.0,272.0,234.0,253.0,26.9
89.5,267.4,221.9,244.7,32.2
90.0,267.9,216.2,242.0,36.6
90.5,264.4,,264.4,
91.0,268.5,,268.5,
91.25,264.5,,264.5,