File: 01_Data/Polyisocyanurate_Spray_Foam_Insulation/Cone/Polyisocyanurate_Spray_Foam_Insulation_Cone_HF25Scan_241113_R2.csv
Names,Time,Stack TC,Smoke TC,Exh Press,Smoke Comp,Smoke Meas,CO Meter,CO2 Meter,O2 Meter,Sample Mass,Ext Coeff,Start Test,Flame Verif
Chan Gain,,500,500,1,1,1,1,1,1,1,1,1.0,1.0
Offset,,0,0,0.138019,0,0,0,0,0,0,0,0.0,0.0
Gain,,1,1,25.011,12.0976,1865.13,1,1,1,1.00093,0.957506,1.0,1.0
Units,sec,C,C,Pa,%,%,%,%,%,g,/m,,
Baseline,,29.9937,30.634,168.492,98.1653,114.443,0.000335368,0.0424934,20.9479,-442.256,-1.28832,,
9,2,27.8618,28.6762,169.234,96.3706,111.619,0.00048947,0.0429721,20.9479,48.4752,-1.23373,0.0,0.0
18,4.25,28.757,29.4291,153.024,96.3632,83.3867,0.000521173,0.042722,20.9485,48.1649,1.21482,0.0,1.0
27,6.5,30.5156,33.2381,148.532,96.423,78.4916,0.00065952,0.0430114,20.9499,47.8246,1.72815,0.0,1.0
36,8.75,32.228,35.6345,150.561,96.4588,75.5888,0.000703357,0.0431409,20.9498,47.5143,2.04779,0.0,1.0
45,11,34.6467,39.0985,150.401,96.5253,70.1245,0.000815627,0.0439953,20.9487,47.164,2.68381,0.0,1.0
54,13.25,37.3612,42.3559,153.328,96.6083,68.9292,0.00310783,0.0956049,20.9444,46.7937,2.83543,0.0,0.0
63,15.5,39.7125,45.5147,154.46,96.6977,69.8399,0.00973033,0.203581,20.8612,46.4233,2.73295,0.0,0.0
72,17.75,41.056,47.9379,146.529,96.7996,66.937,0.0193811,0.309662,20.6824,46.043,3.09837,0.0,0.0
81,20,42.7205,50.261,147.188,96.8859,59.936,0.0260958,0.372271,20.5618,45.6126,4.03377,0.0,0.0
90,22.25,44.214,52.2824,147.081,96.9871,62.042,0.0314788,0.418234,20.4554,45.2522,3.75247,0.0,0.0
99,24.5,45.626,53.8962,153.589,97.1241,66.0832,0.0349766,0.44282,20.3901,44.8819,3.2343,0.0,0.0
108,26.75,46.8075,55.5401,142.052,97.2673,66.7094,0.0373707,0.460568,20.3536,44.5416,3.16748,0.0,0.0
117,29,47.9266,57.3412,149.553,97.4224,68.3031,0.0388746,0.471289,20.3335,44.1612,2.98255,0.0,0.0
126,31.25,49.0272,58.4793,142.676,97.5593,61.302,0.0402662,0.480995,20.3129,43.8209,3.90266,0.0,0.0
135,33.5,49.9962,59.7296,148.568,97.6956,60.4482,0.0416643,0.487194,20.2975,43.4005,4.03218,0.0,0.0
144,35.75,50.7229,60.4383,149.483,97.8148,62.1558,0.0427362,0.490047,20.2882,43.0802,3.80845,0.0,0.0
153,38,51.5243,61.6779,139.832,97.9629,58.7407,0.0433258,0.489973,20.2823,42.6298,4.29581,0.0,0.0
162,40.25,52.2025,62.6477,145.324,98.0792,60.9036,0.0433224,0.493447,20.2812,42.1994,4.00206,0.0,0.0
171,42.5,52.8041,63.1521,150.762,98.1737,62.4404,0.0433755,0.497948,20.2762,41.789,3.80084,0.0,0.0
180,44.75,54.0782,64.3476,145.743,98.2756,61.1313,0.0435572,0.496849,20.2706,41.3286,3.98753,0.0,0.0
189,47,54.7909,65.884,139.671,98.3989,62.2697,0.0443429,0.501928,20.2687,40.8681,3.84309,0.0,0.0
198,49.25,56.4084,67.473,146.001,98.4716,65.2295,0.0458524,0.510339,20.2639,40.4678,3.45926,0.0,0.0
207,51.5,56.0998,68.5707,146.795,98.5192,65.2295,0.0474674,0.520152,20.2468,40.1375,3.46332,0.0,0.0
216,53.75,56.5049,68.4663,148.363,98.5931,69.043,0.0489253,0.534817,20.2315,39.7171,2.99238,0.0,0.0
225,56,57.4165,68.2731,146.348,98.6056,62.4404,0.050607,0.555792,20.2084,39.3067,3.83771,0.0,0.0
234,58.25,57.8168,68.7517,144.202,98.5864,52.5365,0.0520636,0.569234,20.1765,38.8463,5.28666,0.0,0.0
243,60.5,58.6715,70.2316,145.866,98.6289,57.09,0.0518334,0.552089,20.1637,38.4959,4.59212,0.0,0.0
252,62.75,59.0871,70.6027,144.53,98.6016,48.4383,0.0498457,0.526629,20.1861,38.1156,5.97011,0.0,0.0
261,65,59.4967,70.3311,148.512,98.6001,49.5197,0.048041,0.518356,20.2203,37.7452,5.78452,0.0,0.0
270,67.25,59.7096,70.7642,145.32,98.5325,49.1782,0.0477889,0.528184,20.2315,37.4349,5.83689,0.0,0.0
279,69.5,59.5312,70.5768,146.751,98.4576,50.4874,0.0479625,0.537501,20.2202,37.1647,5.60983,0.0,0.0
288,71.75,58.7894,70.4712,154.27,98.4491,55.0978,0.0468045,0.536755,20.206,36.8043,4.87513,0.0,0.0
297,74,58.4688,69.6039,156.802,98.4,80.0285,0.0446087,0.53133,20.2015,36.6342,1.73576,0.0,0.0
306,76.25,58.2297,68.3725,146.727,98.3383,59.0253,0.0415115,0.511357,20.2051,36.474,4.28735,0.0,0.0
315,78.5,57.7782,67.1108,155.534,98.2723,76.158,0.038366,0.485947,20.2257,36.3139,2.14122,0.0,0.0
324,80.75,56.4562,65.6992,152.996,98.2143,76.841,0.0349596,0.455953,20.2561,36.2238,2.06127,0.0,0.0
333,83,55.6886,63.9792,161.019,98.1268,90.1601,0.0310721,0.421953,20.3011,36.1337,0.711188,0.0,0.0
342,85.25,54.5059,61.8866,157.894,98.0755,96.9904,0.0270471,0.394448,20.3602,36.1037,0.0934445,0.0,0.0
351,87.5,52.8418,60.2574,157.26,98.0227,102.398,0.0236855,0.368963,20.3936,36.1537,-0.366755,0.0,0.0
360,89.75,50.6784,58.3426,160.632,97.9747,104.902,0.0196164,0.32828,20.429,36.1738,-0.573823,0.0,0.0
369,92,49.291,55.3993,167.315,97.8931,105.642,0.0154653,0.282515,20.4968,36.1838,-0.639858,0.0,0.0
378,94.25,46.3802,51.4683,169.99,97.8514,107.065,0.0118238,0.231823,20.5626,36.2238,-0.755819,0.0,0.0
387,96.5,51.5067,55.7603,161.901,97.827,106.325,0.00894507,0.18207,20.6398,36.2138,-0.699661,0.0,0.0
396,98.75,50.0247,54.8368,165.767,97.9367,109.342,0.00660547,0.136099,20.7202,36.2038,-0.92524,0.0,0.0
405,101,49.2135,52.9238,166.017,98.0382,107.35,0.00487571,0.100585,20.7915,36.2038,-0.762096,0.0,0.0
414,103.25,47.956,51.1518,166.442,98.1999,104.674,0.0032915,0.0755251,20.8521,36.2338,-0.53629,0.0,0.0
423,105.5,47.1486,49.7871,163.819,98.2878,105.756,0.00217464,0.0610357,20.8951,36.2138,-0.615111,0.0,0.0
432,107.75,46.3406,49.1179,166.2,98.359,109.342,0.00147621,0.0531276,20.918,36.2238,-0.889096,0.0,0.0
441,110,45.6779,47.6884,168.306,98.4325,105.87,0.000903026,0.0487433,20.9301,36.2238,-0.611789,0.0,0.0
450,112.25,45.2831,47.2582,163.122,98.4923,108.374,0.000443748,0.0464943,20.9382,36.1938,-0.803063,0.0,0.0
459,114.5,44.7933,46.6157,165.936,98.5196,107.236,0.000248537,0.0450226,20.9421,36.2438,-0.71204,0.0,0.0
468,116.75,43.9745,45.0505,166.974,98.5296,107.065,0.000300843,0.0441098,20.9449,36.1037,-0.697806,0.0,0.0
477,119,43.6206,44.8056,163.415,98.5599,105.471,0.000441404,0.0436325,20.9462,36.2338,-0.569258,0.0,0.0
486,121.25,43.2303,44.3402,164.515,98.5377,108.09,0.00054694,0.0433443,20.9466,36.2238,-0.777106,0.0,0.0
495,123.5,42.2581,44.2283,160.319,98.5174,107.634,0.000565877,0.0430521,20.9467,36.2638,-0.743379,0.0,0.0
504,125.75,42.6665,43.2832,168.129,98.4539,103.707,0.000629771,0.0428149,20.9467,36.2538,-0.436589,0.0,0.0
513,128,42.8397,43.3463,162.954,98.3701,103.821,0.00070348,0.0427871,20.9467,36.2038,-0.452956,0.0,0.0
522,130.25,42.7393,43.5318,160.928,98.273,102.853,0.000672539,0.0429478,20.9467,36.1738,-0.382602,0.0,0.0
531,132.5,42.2693,42.82,167.943,98.1567,103.707,0.000664103,0.0431314,20.9467,36.1838,-0.461981,0.0,0.0
540,134.75,42.051,42.4172,163.63,98.0363,101.999,0.000773693,0.0432151,20.9465,36.2038,-0.332839,0.0,0.0
549,137,41.9719,42.1459,164.666,97.9625,102.568,0.000960093,0.043413,20.9452,36.1738,-0.385907,0.0,0.0
558,139.25,42.0649,41.435,165.921,97.974,101.202,0.00100972,0.0434137,20.9447,36.2438,-0.27231,0.0,0.0
567,141.5,41.029,41.5137,166.074,98.0555,101.601,0.000898038,0.0432027,20.9455,36.2338,-0.298321,0.0,0.0
576,143.75,41.3123,41.3638,162.468,98.0895,102.682,0.000706726,0.0430583,20.9467,36.2238,-0.384342,0.0,0.0
585,146,40.8719,40.7704,166.777,98.1515,103.935,0.00056338,0.0428516,20.9472,36.2238,-0.480843,0.0,0.0
594,148.25,41.3532,41.2139,171.002,98.2047,104.902,0.000517559,0.0427509,20.9474,36.2138,-0.554128,0.0,0.0
603,150.5,41.0535,41.4655,164.246,98.2549,104.105,0.000490113,0.0427824,20.9475,36.2238,-0.485789,0.0,0.0
612,152.75,40.5201,40.7475,169.318,98.3114,105.813,0.000523403,0.0428109,20.948,36.2138,-0.617611,0.0,0.0
621,155,40.6995,40.6707,158.474,98.3531,105.699,0.000550764,0.0429418,20.9483,36.2238,-0.605006,0.0,0.0
630,157.25,40.7891,40.5981,161.007,98.4044,104.504,0.000476108,0.0431299,20.9484,36.2138,-0.505101,0.0,0.0
639,159.5,40.4877,40.7347,157.616,98.4362,104.162,0.000570848,0.0430788,20.9484,36.2138,-0.474899,0.0,0.0
648,161.75,40.1611,40.7537,163.224,98.4727,103.65,0.000791403,0.0429574,20.9484,36.2138,-0.430371,0.0,0.0
657,164,40.0265,40.3691,166.19,98.4701,104.731,0.000868872,0.0428887,20.948,36.2038,-0.517774,0.0,0.0
666,166.25,40.2742,40.5743,161.055,98.4838,103.138,0.00071703,0.0429721,20.9465,36.2038,-0.387812,0.0,0.0
675,168.5,39.8016,40.2687,161.216,98.4964,105.87,0.000548667,0.043026,20.9454,36.2038,-0.606341,0.0,0.0
684,170.75,39.8042,40.0575,164.593,98.4786,103.479,0.000547697,0.0429845,20.9449,36.2038,-0.416019,0.0,0.0
693,173,39.9707,39.9526,160.835,98.4539,104.162,0.000692495,0.0430156,20.9453,36.2438,-0.473387,0.0,0.0
702,175.25,39.5018,39.7824,168.988,98.4059,104.333,0.00071182,0.0430548,20.9468,36.2438,-0.49124,0.0,0.0
711,177.5,39.8436,40.3365,169.756,98.3642,104.447,0.00065038,0.0431054,20.9474,36.2438,-0.503961,0.0,0.0
720,179.75,39.5704,40.4559,164.585,98.2604,105.471,0.000607777,0.0430225,20.9476,36.2338,-0.594813,0.0,0.0
729,182,39.7417,40.1375,163.691,98.2051,104.162,0.000647322,0.0430682,20.9477,36.2138,-0.494642,0.0,0.0
738,184.25,39.4787,39.817,166.071,98.1058,104.219,0.000741134,0.0429429,20.9467,36.2038,-0.507728,0.0,0.0
747,186.5,39.5749,39.5658,164.117,97.9883,104.105,0.000763134,0.0429534,20.9454,36.2138,-0.508606,0.0,0.0
756,188.75,39.2399,39.6025,164.24,97.8909,103.365,0.00070209,0.0428892,20.9454,36.2138,-0.457053,0.0,0.0
765,191,39.1438,39.3805,163.912,97.8027,103.764,0.000525977,0.0427273,20.9464,36.2138,-0.49694,0.0,0.0
774,193.25,39.416,39.3083,164.791,97.7288,102.625,0.000322951,0.0425308,20.9477,36.2338,-0.410629,0.0,0.0
783,195.5,38.9998,39.3807,168.399,97.5841,104.504,0.000207449,0.0425033,20.9482,36.2538,-0.575415,0.0,0.0
792,197.75,38.7499,39.0215,167.679,97.501,102.341,0.000259077,0.0424027,20.9484,36.2238,-0.406903,0.0,0.0
801,200,38.9982,39.2652,167.829,97.3976,104.333,0.000441143,0.0425069,20.9485,36.2138,-0.577741,0.0,0.0
810,202.25,38.9746,39.36,165.925,97.2961,103.195,0.000570766,0.0424317,20.9486,36.2038,-0.494353,0.0,0.0
819,204.5,38.5149,38.5149,166.603,97.1647,103.195,0.000638187,0.0424242,20.9486,36.1938,-0.505707,0.0,0.0
828,206.75,38.3716,38.6372,165.078,97.0462,104.674,0.000645337,0.0424169,20.9499,36.1637,-0.635553,0.0,0.0
837,209,38.4587,39.1538,171.685,96.9491,101.658,0.000618527,0.0423159,20.9505,36.1938,-0.39834,0.0,0.0
846,211.25,38.4941,38.9251,164.192,96.8247,102.056,0.000646485,0.0422451,20.9505,36.2038,-0.441982,0.0,0.0
852,212.75,38.5274,38.8219,165.913,96.7874,102.17,0.00073873,0.0423442,20.9496,36.1938,-0.45458,0.0,0.0