File: 01_Data/Polyisocyanurate_Spray_Foam_Insulation/Cone/Polyisocyanurate_Spray_Foam_Insulation_Cone_HF75Scan_241113_R1.csv
Names,Time,Stack TC,Smoke TC,Exh Press,Smoke Comp,Smoke Meas,CO Meter,CO2 Meter,O2 Meter,Sample Mass,Ext Coeff,Start Test,Flame Verif
Chan Gain,,500,500,1,1,1,1,1,1,1,1,1.0,1.0
Offset,,0,0,0.138019,0,0,0,0,0,0,0,0.0,0.0
Gain,,1,1,25.011,12.4314,2004.68,1,1,1,1.00093,0.957506,1.0,1.0
Units,sec,C,C,Pa,%,%,%,%,%,g,/m,,
Baseline,,48.1389,50.8937,159.735,100.146,101.086,0.000820811,0.0419855,20.9462,-445.049,-0.0781555,,
8,1.75,48.7213,51.9573,139.483,100.44,52.919,0.000521579,0.0414969,20.9491,44.7117,5.38221,0.0,1.0
16,3.75,52.9298,58.7997,135.843,100.454,49.6765,0.000534811,0.0416344,20.949,43.881,5.91443,0.0,1.0
24,5.75,57.8876,65.7903,128.284,100.475,38.9704,0.00054491,0.0416722,20.9489,43.2804,7.95488,0.0,1.0
32,7.75,62.977,73.0522,121.44,100.481,38.2362,0.000724018,0.0425937,20.9475,42.6098,8.11518,0.0,1.0
40,9.75,68.0396,81.1945,124.864,100.509,41.7234,0.00335661,0.0900313,20.9452,41.8591,7.38444,0.0,0.0
48,11.75,73.0463,87.9424,120.895,100.519,35.8503,0.012708,0.268731,20.9003,41.1784,8.65953,0.0,0.0
56,13.75,77.3494,93.9251,118.571,100.542,34.382,0.0296385,0.513979,20.5964,40.4978,9.0127,0.0,0.0
64,15.75,80.8465,99.1273,120.272,100.531,44.354,0.0542474,0.729525,20.2299,39.8072,6.87273,0.0,0.0
72,17.75,83.1434,102.407,124.596,100.58,39.2763,0.0756904,0.895293,19.891,39.1666,7.89799,0.0,0.0
80,19.75,85.9435,105.725,116.885,100.57,37.9915,0.090342,1.01203,19.649,38.556,8.1765,0.0,0.0
88,21.75,88.3003,108.861,129.288,100.589,35.8503,0.0985052,1.08011,19.4948,37.9654,8.66533,0.0,0.0
96,23.75,90.4165,111.436,114.596,100.581,34.7491,0.103317,1.10919,19.3958,37.3749,8.9267,0.0,0.0
104,25.75,92.1034,113.883,125.442,100.628,34.382,0.104272,1.09566,19.3499,36.6642,9.01983,0.0,0.0
112,27.75,93.5592,116.224,119.088,100.63,35.6668,0.102892,1.08191,19.3603,36.0637,8.71192,0.0,0.0
120,29.75,95.7101,118.86,126.396,100.634,33.9538,0.10057,1.07505,19.3733,35.4131,9.12564,0.0,0.0
128,31.75,97.415,120.668,119.596,100.643,34.8103,0.0984177,1.06139,19.3906,34.7925,8.91716,0.0,0.0
136,33.75,98.3874,122.059,126.344,100.647,28.5089,0.0969603,1.05024,19.4073,34.302,10.5947,0.0,0.0
144,35.75,98.9712,122.087,127.767,100.659,28.2642,0.0962591,1.04747,19.417,33.8816,10.6681,0.0,0.0
152,37.75,98.2235,120.428,141.875,100.696,46.8623,0.0963163,1.06079,19.4212,33.6714,6.42447,0.0,0.0
160,39.75,95.9602,117.598,143.223,100.687,60.505,0.096765,1.06918,19.4045,33.5313,4.27765,0.0,0.0
168,41.75,94.4147,113.967,152.913,100.703,79.1031,0.0955964,1.05323,19.3923,33.3711,2.02775,0.0,0.0
176,43.75,91.9472,109.961,153.714,100.724,78.8584,0.0913978,1.00483,19.3931,33.3311,2.05551,0.0,0.0
184,45.75,89.4712,106.547,152.71,100.728,87.1174,0.0818989,0.875358,19.4545,33.2811,1.21924,0.0,0.0
192,47.75,86.8746,103.079,149.478,100.728,90.2987,0.0684166,0.724559,19.6206,33.2711,0.918062,0.0,0.0
200,49.75,84.7311,99.4907,154.673,100.759,92.0117,0.0542433,0.584656,19.8427,33.231,0.762783,0.0,0.0
208,51.75,82.9388,96.639,155.355,100.763,95.1318,0.0384429,0.45435,20.0605,33.181,0.48304,0.0,0.0
216,53.75,80.8758,93.62,152.211,100.771,94.7647,0.0264287,0.354756,20.2808,33.1609,0.516145,0.0,0.0
224,55.75,78.9312,91.4217,154.845,100.776,96.4777,0.0182629,0.282984,20.4407,33.1409,0.366118,0.0,0.0
232,57.75,77.0006,88.1268,155.093,100.785,96.2941,0.0128744,0.230749,20.5564,33.1009,0.382839,0.0,0.0
240,59.75,74.3254,84.5985,157.021,100.8,97.3953,0.00987068,0.196993,20.6415,33.0909,0.288628,0.0,0.0
248,61.75,72.763,82.9683,156.94,100.797,96.7224,0.00778915,0.169278,20.714,33.0308,0.346548,0.0,0.0
256,63.75,71.4099,80.6206,157.092,100.824,96.7224,0.00669759,0.149031,20.7569,33.0809,0.348793,0.0,0.0
264,65.75,70.4244,78.8971,153.18,100.825,98.2518,0.00621487,0.133027,20.792,33.0208,0.217176,0.0,0.0
272,67.75,69.3806,76.9621,158.295,100.799,96.8447,0.00616425,0.122737,20.8186,32.9808,0.336088,0.0,0.0
280,69.75,68.045,75.9408,155.412,100.833,96.6612,0.00634709,0.116128,20.8367,32.9407,0.354896,0.0,0.0
288,71.75,67.245,74.5686,152.287,100.816,98.3742,0.00650035,0.112782,20.8475,32.9507,0.205963,0.0,0.0
296,73.75,66.7671,73.268,154.55,100.847,97.4565,0.00650731,0.111932,20.8548,32.9207,0.287272,0.0,0.0
304,75.75,66.0437,72.8318,156.459,100.825,98.8636,0.00639185,0.11203,20.858,32.8907,0.165039,0.0,0.0
312,77.75,65.3486,71.2197,155.46,100.842,97.3953,0.00626505,0.111857,20.8594,32.8907,0.292105,0.0,0.0
320,79.75,65.0589,70.4825,156.808,100.815,100.638,0.00620718,0.111969,20.8599,32.8807,0.0147616,0.0,0.0
328,81.75,64.15,69.7657,156.343,100.812,96.5389,0.00627313,0.112483,20.8602,32.8306,0.363765,0.0,0.0
336,83.75,63.8963,68.8665,153.696,100.817,96.9059,0.00633896,0.112967,20.8601,32.8406,0.3323,0.0,0.0
344,85.75,63.2071,68.6019,157.383,100.8,100.515,0.00636249,0.112872,20.859,32.7906,0.0237164,0.0,0.0
352,87.75,62.7499,67.6456,157.071,100.755,96.6,0.00644565,0.112634,20.8593,32.7506,0.353733,0.0,0.0
360,89.75,62.43,66.9394,153.145,100.764,97.1506,0.00652626,0.112284,20.8599,32.7506,0.306692,0.0,0.0
368,91.75,61.9559,66.3781,155.718,100.738,96.4777,0.00659034,0.11223,20.8606,32.7105,0.362955,0.0,0.0
376,93.75,61.6497,65.3374,154.325,100.742,97.7012,0.00678286,0.112265,20.8612,32.7005,0.257452,0.0,0.0
384,95.75,61.3675,65.5106,152.684,100.71,97.8236,0.00691191,0.112058,20.8615,32.6305,0.24422,0.0,0.0
392,97.75,61.1352,65.1546,152.594,100.698,96.4777,0.00685707,0.111205,20.8618,32.7205,0.359571,0.0,0.0
400,99.75,61.202,64.6408,154.02,100.685,96.5389,0.00670482,0.110277,20.864,32.6705,0.35317,0.0,0.0
408,101.75,60.5911,64.0574,155.966,100.695,98.1907,0.00668595,0.109368,20.8653,32.5904,0.211496,0.0,0.0
416,103.75,61.3175,65.3468,154.283,100.666,97.8848,0.00677912,0.108943,20.8672,32.5904,0.235297,0.0,0.0
424,105.75,61.4478,64.8648,157.138,100.644,97.5177,0.00697099,0.108564,20.8668,32.6004,0.265017,0.0,0.0
432,107.75,61.1708,63.6725,154.945,100.623,96.4165,0.00712835,0.10759,20.8676,32.6104,0.358662,0.0,0.0
440,109.75,60.6952,63.5923,153.303,100.574,97.7624,0.00714062,0.105898,20.8681,32.5704,0.238171,0.0,0.0
448,111.75,60.8975,63.6207,157.54,100.583,96.9059,0.0070444,0.104146,20.8693,32.5504,0.312809,0.0,0.0
456,113.75,60.291,63.6979,154.987,100.565,98.4354,0.00691538,0.103158,20.8718,32.5404,0.17976,0.0,0.0
464,115.75,60.4327,63.1186,153.448,100.545,97.273,0.00681367,0.101556,20.8743,32.5103,0.277853,0.0,0.0
472,117.75,60.0216,63.2112,156.651,100.522,98.0071,0.00682835,0.100145,20.8752,32.5103,0.212832,0.0,0.0
480,119.75,59.8688,63.0485,159.526,100.498,97.7624,0.0069748,0.0989606,20.8772,32.4903,0.231832,0.0,0.0
488,121.75,59.7597,62.6709,156.163,100.495,100.026,0.00717476,0.0979372,20.8792,32.4803,0.0392586,0.0,0.0
496,123.75,59.8749,62.8467,156.107,100.489,100.454,0.00735815,0.0968029,20.8803,32.4703,0.00293118,0.0,0.0
504,125.75,59.6073,61.9205,155.933,100.453,98.7413,0.00749615,0.0959571,20.8818,32.4603,0.144348,0.0,0.0
512,127.75,59.551,61.8703,153.468,100.436,99.8425,0.00761328,0.094776,20.8825,32.4303,0.0497999,0.0,0.0
520,129.75,59.3036,62.3733,158.591,100.4,99.9648,0.00779753,0.0925802,20.884,32.4002,0.0364657,0.0,0.0
528,131.75,59.2926,61.4267,153.503,100.366,100.76,0.00801192,0.0901859,20.8863,32.3602,-0.0329172,0.0,0.0
536,133.75,59.0363,61.6716,154.927,100.364,100.026,0.00817126,0.087641,20.8893,32.3502,0.0283438,0.0,0.0
544,135.75,58.7494,62.027,155.744,100.348,100.148,0.00817685,0.0858721,20.8914,32.3702,0.0167104,0.0,0.0
552,137.75,58.5568,61.5378,158.806,100.302,98.313,0.00819565,0.0846185,20.8936,32.3302,0.168188,0.0,0.0
560,139.75,58.2156,61.1425,159.374,100.273,99.2919,0.00830367,0.0833784,20.8958,32.3402,0.082593,0.0,0.0
568,141.75,58.19,61.0798,155.921,100.256,99.8425,0.0082841,0.0820728,20.8973,32.3902,0.0347159,0.0,0.0
576,143.75,58.5383,60.5771,160.123,100.238,99.5978,0.00807556,0.0808088,20.8993,32.2501,0.0538012,0.0,0.0
584,145.75,58.0259,60.7095,156.992,100.206,100.271,0.00793286,0.0792607,20.9008,32.3402,-0.00546064,0.0,0.0
592,147.75,58.1661,60.6221,155.908,100.186,99.6589,0.00807958,0.0776922,20.9023,32.3001,0.0442879,0.0,0.0
600,149.75,57.8884,60.6482,154.322,100.165,98.0683,0.00822394,0.0766503,20.9033,32.2201,0.177676,0.0,0.0
608,151.75,58.3659,60.2072,152.759,100.129,99.5978,0.00824882,0.0757809,20.9049,32.2901,0.0446415,0.0,0.0
616,153.75,58.0318,60.7719,155.312,100.117,100.76,0.00812446,0.0748247,20.9059,32.3402,-0.0538024,0.0,0.0
624,155.75,57.8866,60.856,161.951,100.086,99.2307,0.00790917,0.0736071,20.907,32.4503,0.0720571,0.0,0.0
632,157.75,58.1486,61.1531,159.774,100.06,101.005,0.00765737,0.0725353,20.9087,32.2501,-0.0789199,0.0,0.0
640,159.75,57.8564,60.3129,157.772,100.047,99.2307,0.00751364,0.0720046,20.9101,32.2301,0.0687775,0.0,0.0
648,161.75,57.7882,60.2791,155.767,100.025,99.5366,0.00748646,0.071598,20.9114,32.2301,0.0410772,0.0,0.0
656,163.75,57.6174,59.8855,159.704,99.9992,98.986,0.00746013,0.0706953,20.912,32.2101,0.0855342,0.0,0.0
664,165.75,57.4863,59.7308,151.43,99.987,99.1083,0.00749632,0.0691141,20.9122,32.17,0.0741385,0.0,0.0
672,167.75,57.2097,60.2909,157.885,99.9783,100.148,0.00757037,0.0674071,20.9133,32.16,-0.0142751,0.0,0.0
680,169.75,57.2962,59.9904,158.55,99.9555,100.21,0.00767545,0.0662892,20.9154,32.12,-0.0213173,0.0,0.0
688,171.75,57.7043,59.502,150.796,99.9388,99.0472,0.0076051,0.0651076,20.9176,32.19,0.0752758,0.0,0.0
696,173.75,57.2861,60.0132,157.11,99.9415,98.6189,0.00745738,0.0640765,20.9199,32.17,0.111893,0.0,0.0
704,175.75,57.4518,59.9269,159.552,99.9073,99.2919,0.00743107,0.0628617,20.9209,32.2401,0.0519028,0.0,0.0
712,177.75,57.3699,59.5254,155.358,99.9191,101.433,0.00745168,0.0612696,20.9226,32.14,-0.126311,0.0,0.0
714,178.25,57.2608,59.354,152.349,99.9096,98.8636,0.0074492,0.0609587,20.9233,32.2301,0.088399,0.0,0.0