File: 01_Data/Polyisocyanurate_Spray_Foam_Insulation/Cone/Polyisocyanurate_Spray_Foam_Insulation_Cone_HF50Scan_241113_R2.csv
Names,Time,Stack TC,Smoke TC,Exh Press,Smoke Comp,Smoke Meas,CO Meter,CO2 Meter,O2 Meter,Sample Mass,Ext Coeff,Start Test,Flame Verif
Chan Gain,,500,500,1,1,1,1,1,1,1,1,1.0,1.0
Offset,,0,0,0.138019,0,0,0,0,0,0,0,0.0,0.0
Gain,,1,1,25.011,12.3279,2325.04,1,1,1,1.00093,0.957506,1.0,1.0
Units,sec,C,C,Pa,%,%,%,%,%,g,/m,,
Baseline,,43.7479,45.5618,163.103,99.8505,96.3848,0.000253055,0.0406612,20.9539,-443.043,0.297482,,
9,2,40.9648,42.1749,165.902,99.839,89.6158,0.00048033,0.0480861,20.9472,49.246,0.907337,0.0,0.0
18,4.25,41.6413,43.8415,145.759,99.8374,59.8148,0.000465102,0.0480645,20.9459,48.9757,4.30281,0.0,1.0
27,6.5,45.2619,48.9583,139.806,99.8721,57.2604,0.000426555,0.0475233,20.9455,48.5053,4.67229,0.0,1.0
36,8.75,48.5368,53.8779,133.722,99.8788,52.6484,0.000437006,0.0470775,20.9453,47.9948,5.37818,0.0,0.0
45,11,52.3425,59.8003,129.007,99.8397,48.1073,0.00075796,0.0555919,20.9452,47.3542,6.13251,0.0,0.0
54,13.25,56.4949,65.8462,133.522,99.8694,43.5662,0.00424399,0.141706,20.942,46.8037,6.96781,0.0,0.0
63,15.5,60.6533,72.0261,135.388,99.8698,44.7015,0.0113791,0.273084,20.8479,46.1731,6.75177,0.0,0.0
72,17.75,64.4268,77.6142,141.586,99.8822,42.289,0.0265505,0.440305,20.6367,45.5925,7.21879,0.0,0.0
81,20,67.6465,81.6318,135.734,99.8886,42.7147,0.0417896,0.57748,20.3859,45.012,7.1352,0.0,0.0
90,22.25,69.8583,85.3369,128.758,99.9229,42.9276,0.05367,0.681297,20.1764,44.4415,7.09633,0.0,0.0
99,24.5,72.3634,88.2248,131.704,99.9285,40.3023,0.0624317,0.75566,20.0272,43.881,7.62685,0.0,0.0
108,26.75,74.1465,90.8772,129.862,99.9435,44.1338,0.0673509,0.801942,19.9018,43.3004,6.86531,0.0,0.0
117,29,76.492,93.7061,135.879,99.9755,46.2625,0.0695791,0.816936,19.8295,42.7799,6.47236,0.0,0.0
126,31.25,77.8913,95.3271,131.262,99.9823,44.2048,0.0702581,0.81674,19.8008,42.2294,6.85507,0.0,0.0
135,33.5,79.2028,97.1403,131.179,99.9631,41.4375,0.0701422,0.8178,19.7936,41.7289,7.39643,0.0,0.0
144,35.75,80.4471,98.4297,138.857,99.9909,41.1537,0.0699289,0.820648,19.7884,41.1884,7.45649,0.0,0.0
153,38,81.16,99.2783,132.347,100.003,43.85,0.0696999,0.816345,19.7838,40.5979,6.92449,0.0,0.0
162,40.25,81.8168,99.534,127.147,100.004,42.36,0.068998,0.802922,19.7887,40.1174,7.21496,0.0,0.0
171,42.5,82.3883,100.556,132.704,100.006,41.5795,0.0679919,0.793726,19.8053,39.597,7.37135,0.0,0.0
180,44.75,83.1138,100.842,133.674,99.9962,40.0894,0.0671653,0.777594,19.8185,39.1165,7.67702,0.0,0.0
189,47,83.3915,101.186,141.958,100.011,41.1537,0.0665832,0.751629,19.8398,38.5159,7.45817,0.0,0.0
198,49.25,83.5496,101.021,136.463,99.997,40.0184,0.0658576,0.735506,19.8758,38.1056,7.69196,0.0,0.0
207,51.5,83.7607,100.357,134.648,99.9853,46.4044,0.0652937,0.729289,19.8951,37.6551,6.44745,0.0,0.0
216,53.75,83.5698,100.007,137.023,100.02,39.096,0.0646315,0.71782,19.9061,37.1847,7.88972,0.0,0.0
225,56,83.6443,99.1141,140.824,99.9815,45.1272,0.0635181,0.700115,19.9197,36.7843,6.68155,0.0,0.0
234,58.25,82.1367,98.3026,142.663,99.9608,41.4375,0.0619659,0.672744,19.9421,36.404,7.39624,0.0,0.0
243,60.5,82.2594,97.6786,141.507,99.945,43.5662,0.0594153,0.640377,19.9741,36.0637,6.97416,0.0,0.0
252,62.75,81.5393,96.3771,147.498,99.9405,53.0741,0.0565575,0.616506,20.0291,35.7734,5.31572,0.0,0.0
261,65,80.7218,94.8875,145.066,99.8867,53.8546,0.054024,0.594771,20.061,35.4831,5.18858,0.0,0.0
270,67.25,79.1702,92.9798,149.081,99.8608,57.3314,0.050772,0.568061,20.0898,35.2529,4.66094,0.0,0.0
279,69.5,78.5818,91.4425,150.804,99.8435,65.704,0.0466181,0.537041,20.1335,35.0527,3.51458,0.0,0.0
288,71.75,77.354,89.0741,152.025,99.8171,72.3738,0.0424327,0.502835,20.1755,34.9126,2.7003,0.0,0.0
297,74,75.6932,87.2905,159.544,99.7678,78.4049,0.0374127,0.462792,20.2239,34.8325,2.02386,0.0,0.0
306,76.25,74.7453,85.3545,152.868,99.7359,86.4228,0.0323863,0.422148,20.2965,34.7925,1.20338,0.0,0.0
315,78.5,73.5274,82.8552,153.677,99.6749,85.7842,0.0276998,0.383984,20.3559,34.7324,1.26054,0.0,0.0
324,80.75,71.799,81.1082,153.037,99.6253,89.5448,0.0232798,0.346497,20.4059,34.7424,0.895994,0.0,0.0
333,83,70.6582,79.0539,155.676,99.5662,91.1768,0.0179614,0.307678,20.4625,34.7324,0.739316,0.0,0.0
342,85.25,68.7845,76.2258,157.359,99.5109,93.5183,0.0135355,0.267136,20.5259,34.7224,0.521673,0.0,0.0
351,87.5,67.0924,73.9973,157.217,99.4744,91.5316,0.00988123,0.226167,20.5911,34.7324,0.69895,0.0,0.0
360,89.75,65.4877,72.0936,157.73,99.3894,94.0859,0.00729001,0.188636,20.6628,34.7324,0.460584,0.0,0.0
369,92,63.2205,69.0275,158.668,99.3265,94.0859,0.00583168,0.157114,20.7181,34.7524,0.455273,0.0,0.0
378,94.25,60.4424,65.9148,161.339,99.2837,94.5117,0.00529322,0.128753,20.7665,34.7224,0.413725,0.0,0.0
387,96.5,59.8652,64.805,155.477,99.2156,93.5892,0.0055039,0.103857,20.814,34.6924,0.490339,0.0,0.0
396,98.75,59.3804,63.6185,158.668,99.1471,93.8731,0.00586131,0.0851046,20.8516,34.7324,0.459107,0.0,0.0
405,101,58.1199,62.7386,158.476,99.0621,95.0793,0.00606885,0.0724896,20.8766,34.6924,0.344662,0.0,0.0
414,103.25,57.7995,61.221,158.865,98.997,93.944,0.00626805,0.0634736,20.8961,34.7124,0.440036,0.0,0.0
423,105.5,57.1378,60.725,160.938,98.8958,97.3498,0.00655441,0.0587373,20.9111,34.6423,0.132333,0.0,0.0
432,107.75,56.313,59.5641,160.99,98.8217,93.8021,0.00689325,0.0565796,20.9184,34.6824,0.437844,0.0,0.0
441,110,55.6076,58.4486,159.112,98.7513,107,0.00731609,0.0555398,20.9212,34.6623,-0.673792,0.0,0.0
450,112.25,55.0043,57.5492,158.689,98.6539,110.193,0.00764801,0.0550816,20.9237,34.6623,-0.929056,0.0,0.0
459,114.5,54.486,57.5295,155.305,98.5312,108.703,0.00785039,0.0553198,20.9245,34.6423,-0.825153,0.0,0.0
468,116.75,54.2464,56.5939,158.866,98.4496,108.348,0.00806964,0.0558811,20.9244,34.6123,-0.804658,0.0,0.0
477,119,53.7272,56.4091,162.012,98.3751,107.638,0.00828828,0.0565822,20.9236,34.6023,-0.755831,0.0,0.0
486,121.25,53.6884,55.7719,156.268,98.2731,107.284,0.00854883,0.0579178,20.9227,34.6123,-0.736811,0.0,0.0
495,123.5,53.2713,55.214,154.275,98.2129,108.986,0.00885524,0.0594088,20.9211,34.5923,-0.874231,0.0,0.0
504,125.75,52.6009,54.4579,161.085,98.1554,105.439,0.00912967,0.0604373,20.9189,34.6023,-0.601195,0.0,0.0
513,128,53.0938,54.1685,158.152,98.0835,105.013,0.00934016,0.0614697,20.9181,34.5522,-0.573364,0.0,0.0
522,130.25,52.3853,53.7834,162.077,98.0154,106.787,0.00951272,0.0624192,20.917,34.5522,-0.719891,0.0,0.0
531,132.5,52.3931,53.7613,156.846,98.0038,108.49,0.00969505,0.0631636,20.916,34.5222,-0.853773,0.0,0.0
540,134.75,51.669,53.2634,155.872,97.974,106.716,0.00990146,0.0643444,20.9157,34.5022,-0.717854,0.0,0.0
549,137,51.1916,53.1917,161.329,97.9315,106.006,0.0102267,0.0653072,20.9146,34.5022,-0.665468,0.0,0.0
558,139.25,51.3626,52.9323,155.487,97.9236,108.986,0.0104053,0.0658472,20.913,34.5022,-0.899009,0.0,0.0
567,141.5,50.9927,52.7942,155.53,97.947,104.658,0.0103652,0.06631,20.9122,34.4822,-0.556643,0.0,0.0
576,143.75,51.4077,52.7278,156.742,97.962,105.864,0.0102808,0.0666744,20.9119,34.4722,-0.651603,0.0,0.0
585,146,51.058,52.6358,160.754,97.9631,106.716,0.0103996,0.067886,20.9118,34.4421,-0.71879,0.0,0.0
594,148.25,50.8447,52.2478,157.177,98.0034,106.858,0.0105238,0.0688426,20.9089,34.4121,-0.726501,0.0,0.0
603,150.5,51.4315,52.5532,160.066,98.0455,106.645,0.010563,0.0691289,20.9082,34.4021,-0.706143,0.0,0.0
612,152.75,50.842,52.0464,157.288,98.0655,110.122,0.0106806,0.0698603,20.9088,34.4021,-0.973891,0.0,0.0
621,155,51.1552,52.4175,158.468,98.1117,106.716,0.0109212,0.0705147,20.9091,34.3821,-0.706058,0.0,0.0
630,157.25,50.4709,52.0196,161.286,98.1561,107.78,0.0111381,0.0711355,20.9087,34.4021,-0.785612,0.0,0.0
639,159.5,50.8632,52.1155,158.333,98.1911,108.703,0.0112343,0.0717104,20.9081,34.3821,-0.854195,0.0,0.0
648,161.75,50.5696,52.1016,157.237,98.2607,106.716,0.0112334,0.071717,20.9068,34.3521,-0.693313,0.0,0.0
657,164,50.4126,51.0683,156.882,98.3171,106.716,0.0110718,0.0714396,20.9064,34.322,-0.688491,0.0,0.0
666,166.25,50.6891,51.5229,157.778,98.3871,110.476,0.0107634,0.0708579,20.9063,34.292,-0.973402,0.0,0.0
675,168.5,50.4423,51.8524,160.741,98.4357,107.284,0.0106224,0.0705386,20.908,34.282,-0.722932,0.0,0.0
684,170.75,49.8995,51.3504,155.343,98.5094,107.709,0.010691,0.0710619,20.9087,34.292,-0.749906,0.0,0.0
693,173,49.7302,51.3564,161.116,98.5764,106.29,0.0106499,0.0713573,20.908,34.272,-0.632802,0.0,0.0
702,175.25,49.7835,51.3977,160.9,98.6414,107.709,0.0105748,0.0714086,20.9069,34.2219,-0.738654,0.0,0.0
711,177.5,50.153,51.2252,155.366,98.7208,108.703,0.010673,0.0714329,20.9079,34.2119,-0.809005,0.0,0.0
720,179.75,50.0546,51.3559,156.815,98.8013,106.645,0.0108024,0.0718047,20.9083,34.2319,-0.641642,0.0,0.0
729,182,50.0597,50.792,161.813,98.9048,107.213,0.010862,0.0717443,20.9085,34.1919,-0.67744,0.0,0.0
738,184.25,49.9522,50.8478,162.206,98.9695,106.432,0.0108032,0.0715081,20.9085,34.2119,-0.610577,0.0,0.0
747,186.5,49.379,51.1958,158.91,99.047,109.128,0.0106477,0.0713207,20.9085,34.1619,-0.81413,0.0,0.0
756,188.75,49.061,50.8902,160.675,99.1381,112.037,0.010602,0.0712653,20.9081,34.2119,-1.02739,0.0,0.0
765,191,49.2967,50.6735,161.116,99.0696,110.476,0.0106412,0.0712169,20.9079,34.1719,-0.915342,0.0,0.0
774,193.25,49.2283,50.6355,160.068,99.3062,107.993,0.0106741,0.0714065,20.9078,34.1319,-0.704343,0.0,0.0
783,195.5,49.7824,50.7172,155.259,99.3728,110.406,0.0107391,0.071571,20.9077,34.1218,-0.884276,0.0,0.0
792,197.75,49.2102,50.5035,159.442,99.4251,108.135,0.0108247,0.0718696,20.9073,34.0718,-0.705324,0.0,0.0
801,200,48.9726,50.6587,159.389,99.4894,109.199,0.0109117,0.0721513,20.9068,34.0718,-0.782155,0.0,0.0
810,202.25,49.2546,50.6332,161.048,99.547,108.49,0.0109591,0.0727052,20.906,34.0418,-0.722544,0.0,0.0
819,204.5,49.2436,50.6685,154.88,99.5952,107.851,0.0111199,0.0736371,20.9047,34.0418,-0.668896,0.0,0.0
828,206.75,48.9522,49.9656,164.289,99.6497,109.128,0.0112456,0.0741298,20.9038,34.0418,-0.763176,0.0,0.0
837,209,48.9639,50.7022,158.323,99.7065,107.993,0.0111635,0.0739024,20.9034,34.0218,-0.670555,0.0,0.0
840,209.75,49.0222,50.5253,156.589,99.7208,108.348,0.0110573,0.0738213,20.9033,34.0117,-0.696897,0.0,0.0