File: 01_Data/Polyisocyanurate_Spray_Foam_Insulation/Cone/Polyisocyanurate_Spray_Foam_Insulation_Cone_HF50Scan_241113_R1.csv
Names,Time,Stack TC,Smoke TC,Exh Press,Smoke Comp,Smoke Meas,CO Meter,CO2 Meter,O2 Meter,Sample Mass,Ext Coeff,Start Test,Flame Verif
Chan Gain,,500,500,1,1,1,1,1,1,1,1,1.0,1.0
Offset,,0,0,0.138019,0,0,0,0,0,0,0,0.0,0.0
Gain,,1,1,25.011,12.0976,1865.13,1,1,1,1.00093,0.957506,1.0,1.0
Units,sec,C,C,Pa,%,%,%,%,%,g,/m,,
Baseline,,38.6546,40.5738,165.204,98.2269,94.0562,0.00047576,0.0409076,20.9505,-442.642,0.365016,,
8,1.75,37.1205,39.4139,154.659,98.1371,72.1167,0.000565136,0.0426031,20.952,47.2941,2.58762,0.0,1.0
16,3.75,39.0617,42.4821,143.786,98.1401,54.7563,0.000523894,0.0428167,20.95,46.9038,4.90094,0.0,1.0
24,5.75,42.7984,47.7001,138.224,98.1604,47.7552,0.000305275,0.043083,20.9475,46.4534,6.05172,0.0,1.0
32,7.75,45.6191,51.9417,141.448,98.1379,49.9751,0.000240383,0.0434738,20.9457,46.033,5.66817,0.0,1.0
40,9.75,48.9482,57.1756,134.138,98.1567,48.4952,0.0007414,0.0504119,20.9449,45.4925,5.92226,0.0,1.0
48,11.75,52.4863,62.1917,135.701,98.1416,40.3557,0.00338194,0.118594,20.9384,45.0921,7.46415,0.0,1.0
56,13.75,54.8892,66.0478,132.607,98.1515,44.397,0.0107473,0.260357,20.8504,44.5816,6.6634,0.0,1.0
64,15.75,57.8364,70.0033,130.742,98.1678,44.2832,0.0226061,0.394663,20.6681,44.1112,6.68636,0.0,0.0
72,17.75,60.8683,74.1703,136.119,98.1526,43.1448,0.0349318,0.51311,20.4729,43.6607,6.9038,0.0,0.0
80,19.75,62.6721,76.8451,132.035,98.1567,42.4618,0.0447672,0.596833,20.2722,43.2303,7.03818,0.0,0.0
88,21.75,64.3769,79.0185,128.882,98.1678,45.4785,0.0522928,0.652064,20.1369,42.7699,6.46265,0.0,0.0
96,23.75,66.0971,81.2294,138.973,98.1818,38.3067,0.0578709,0.687953,20.0437,42.2594,7.90528,0.0,0.0
104,25.75,67.6635,83.5409,137.566,98.1752,40.9249,0.0614135,0.706786,19.9824,41.8691,7.34939,0.0,0.0
112,27.75,68.8352,84.7166,131.455,98.1969,40.4696,0.0635067,0.712491,19.9525,41.3686,7.44523,0.0,0.0
120,29.75,70.1768,85.9243,140.857,98.1888,41.3234,0.0649975,0.717254,19.9383,40.9582,7.26918,0.0,0.0
128,31.75,70.7669,86.8937,133.135,98.1899,38.6482,0.0658121,0.717143,19.9324,40.5078,7.83143,0.0,0.0
136,33.75,71.5378,88.2517,130.546,98.2102,37.2821,0.0660506,0.714321,19.9312,40.0574,8.13541,0.0,0.0
144,35.75,73.0671,89.3951,137.874,98.1873,41.1526,0.0658148,0.706731,19.9317,39.5569,7.30384,0.0,0.0
152,37.75,73.7719,90.6981,127.487,98.2158,38.762,0.0651223,0.695193,19.9389,39.0765,7.80893,0.0,0.0
160,39.75,75.0376,91.5628,123.693,98.2088,38.4774,0.064319,0.686758,19.9541,38.586,7.87023,0.0,0.0
168,41.75,76.5217,93.7753,134.809,98.2342,36.9406,0.0639733,0.683646,19.9649,38.1256,8.21476,0.0,0.0
176,43.75,76.6732,93.608,149.937,98.2409,35.0053,0.064233,0.687595,19.9708,37.6652,8.66729,0.0,0.0
184,45.75,77.148,93.5785,135.085,98.2305,28.175,0.0648787,0.698573,19.9654,37.2848,10.4896,0.0,0.0
192,47.75,77.2925,93.8531,137.757,98.2324,32.1594,0.0654175,0.710422,19.9493,36.9145,9.37879,0.0,0.0
200,49.75,77.1765,93.3181,141.287,98.2505,40.3557,0.0658841,0.720756,19.9374,36.6442,7.47347,0.0,0.0
208,51.75,76.0831,92.662,142.969,98.2394,51.9104,0.0652589,0.709674,19.931,36.424,5.35774,0.0,0.0
216,53.75,75.5038,90.5947,143.867,98.2409,52.5934,0.0630549,0.68291,19.9341,36.2538,5.24807,0.0,0.0
224,55.75,74.0609,88.622,148.548,98.252,59.7083,0.0603751,0.661134,19.9696,36.1537,4.18333,0.0,0.0
232,57.75,73.0109,86.3092,149.288,98.2538,67.677,0.0569301,0.630407,19.9894,36.0837,3.13128,0.0,0.0
240,59.75,71.0681,84.1156,153.85,98.2209,74.9626,0.0513326,0.578134,20.013,36.0136,2.2697,0.0,0.0
248,61.75,69.7589,81.3229,158.265,98.2276,74.6781,0.0437377,0.513748,20.0961,35.9636,2.30222,0.0,0.0
256,63.75,68.0706,78.8031,152.233,98.2276,80.3131,0.035208,0.448498,20.1969,35.9536,1.69121,0.0,0.0
264,65.75,66.8157,76.4742,163.598,98.1988,79.9146,0.0269099,0.386813,20.2989,35.9435,1.73052,0.0,0.0
272,67.75,65.2561,73.9191,164.159,98.2261,81.9068,0.0201385,0.325311,20.3991,35.9335,1.52605,0.0,0.0
280,69.75,63.6776,72.2915,163.501,98.2036,80.6546,0.015174,0.271575,20.4923,35.9335,1.65352,0.0,0.0
288,71.75,60.5567,68.8035,162.653,98.1966,81.9068,0.010985,0.226987,20.5796,35.9536,1.52352,0.0,0.0
296,73.75,59.1741,66.2517,157.775,98.191,82.0776,0.00813249,0.190077,20.6429,35.9435,1.50555,0.0,0.0
304,75.75,58.4274,64.8638,158.751,98.1884,82.0206,0.00619561,0.157749,20.7077,35.9135,1.51116,0.0,0.0
312,77.75,57.805,63.6895,159.655,98.1549,80.8253,0.00523025,0.132113,20.7634,35.9335,1.63159,0.0,0.0
320,79.75,57.1585,62.4189,159.501,98.1279,82.0776,0.00495567,0.108423,20.804,35.9135,1.50015,0.0,0.0
328,81.75,56.3191,61.16,158.101,98.1157,81.5653,0.00500938,0.0877784,20.8455,35.8935,1.5517,0.0,0.0
336,83.75,55.1345,59.6964,156.73,98.0917,84.582,0.0052173,0.0736204,20.8781,35.9035,1.2446,0.0,0.0
344,85.75,54.8304,58.8879,161.061,98.0415,84.9235,0.00559063,0.064188,20.8993,35.9135,1.20646,0.0,0.0
352,87.75,53.5608,57.5231,162.429,98.0308,87.9972,0.00595377,0.058639,20.9138,35.9035,0.90692,0.0,0.0
360,89.75,53.2794,56.9612,164.089,98.0016,85.2081,0.00623212,0.0554822,20.9217,35.9035,1.17494,0.0,0.0
368,91.75,52.6468,56.1294,159.741,97.9677,84.1836,0.00650965,0.0538501,20.925,35.8835,1.27363,0.0,0.0
376,93.75,51.8997,55.0236,161.357,97.933,85.1512,0.00690212,0.0526741,20.9277,35.8835,1.17466,0.0,0.0
384,95.75,51.9485,54.4736,159.332,97.9045,83.6144,0.00730788,0.0518722,20.9289,35.8735,1.3252,0.0,0.0
392,97.75,51.1603,53.6737,159,97.8621,85.2081,0.00773039,0.0512531,20.93,35.8735,1.16297,0.0,0.0
400,99.75,50.7734,53.3042,166.503,97.8377,83.6144,0.0082449,0.050882,20.9309,35.8635,1.31947,0.0,0.0
408,101.75,50.3768,53.4827,161.583,97.7953,84.4682,0.00872457,0.0509657,20.9313,35.8435,1.23049,0.0,0.0
416,103.75,50.2312,52.4507,155.221,97.7591,83.7851,0.00932781,0.0515233,20.9312,35.8334,1.29558,0.0,0.0
424,105.75,49.8385,52.2399,161.189,97.7362,86.5173,0.0100262,0.0522637,20.9301,35.8435,1.02409,0.0,0.0
432,107.75,49.4647,51.4402,158.33,97.7185,86.005,0.0107172,0.0532125,20.9296,35.8334,1.07245,0.0,0.0
440,109.75,49.1061,51.4672,162.076,97.6635,87.6556,0.0110136,0.055005,20.9283,35.7934,0.908047,0.0,0.0
448,111.75,48.8168,50.7036,162.297,97.6631,87.5418,0.0108754,0.0573146,20.9266,35.7734,0.918931,0.0,0.0
456,113.75,48.434,50.1835,159.351,97.6214,87.4849,0.0101872,0.0594892,20.9243,35.7634,0.920805,0.0,0.0
464,115.75,48.987,50.214,160.672,97.5952,88.0541,0.00960973,0.0611136,20.9231,35.7534,0.86408,0.0,0.0
472,117.75,48.8356,50.1543,160.532,97.6258,87.8833,0.00928787,0.0623365,20.9209,35.7434,0.883021,0.0,0.0
480,119.75,48.3577,49.386,159.003,97.6963,86.5742,0.00926094,0.0634401,20.9191,35.7434,1.01514,0.0,0.0
488,121.75,48.307,49.5304,157.833,97.7425,86.2327,0.00930219,0.0643693,20.9182,35.7133,1.05231,0.0,0.0
496,123.75,47.874,49.674,162.049,97.7997,85.8911,0.00923533,0.0650802,20.9178,35.7033,1.09055,0.0,0.0
504,125.75,48.1635,49.2249,162.055,97.8551,88.794,0.00913766,0.0654979,20.9164,35.6833,0.816133,0.0,0.0
512,127.75,48.2004,49.7764,158.23,97.8979,89.7617,0.00907085,0.0658684,20.9157,35.6833,0.728773,0.0,0.0
520,129.75,48.3572,49.327,158.397,97.94,88.3387,0.00896109,0.0659909,20.9154,35.6633,0.866602,0.0,0.0
528,131.75,47.4869,49.1029,167.687,97.9525,88.9079,0.00888334,0.0661425,20.9152,35.6533,0.813732,0.0,0.0
536,133.75,47.6812,49.1559,159.491,97.9799,90.3878,0.00893733,0.0670334,20.9139,35.6333,0.677419,0.0,0.0
544,135.75,47.4773,48.6866,165.017,98.0168,88.111,0.00918817,0.0677692,20.9133,35.6333,0.894859,0.0,0.0
552,137.75,47.0226,49.192,162.363,98.0448,88.111,0.00939251,0.0680734,20.913,35.6132,0.897264,0.0,0.0
560,139.75,47.8032,48.5079,158.584,98.0489,89.7047,0.00937183,0.0679015,20.9129,35.5732,0.747045,0.0,0.0
568,141.75,47.0677,48.8934,159.255,98.0976,88.6233,0.00911945,0.0675755,20.9142,35.5832,0.853093,0.0,0.0
576,143.75,47.5067,48.6953,163.143,98.1139,87.3141,0.00889187,0.0676276,20.9147,35.5632,0.979483,0.0,0.0
584,145.75,47.7903,49.0552,164.562,98.1165,89.1925,0.00884289,0.0679661,20.9147,35.5732,0.800934,0.0,0.0
592,147.75,47.439,48.7133,162.92,98.122,88.5663,0.00894973,0.0681066,20.9142,35.6032,0.860576,0.0,0.0
600,149.75,46.8481,48.5843,161.349,98.119,89.7047,0.0090219,0.0676485,20.914,35.5732,0.753053,0.0,0.0
608,151.75,47.329,48.701,162.015,98.1172,88.4525,0.00904388,0.0676839,20.9139,35.5232,0.870968,0.0,0.0
616,153.75,47.2484,48.7108,160.113,98.1201,88.2248,0.00910103,0.0677252,20.9139,35.5131,0.892868,0.0,0.0
624,155.75,47.4643,49.1942,158.825,98.101,87.5987,0.00915496,0.0677601,20.9138,35.5131,0.951044,0.0,0.0
632,157.75,47.4053,49.5602,164.111,98.0947,87.8264,0.0092017,0.0679252,20.9138,35.4731,0.928705,0.0,0.0
640,159.75,47.5355,49.0446,167.28,98.1002,88.7371,0.00915769,0.0682616,20.9138,35.4631,0.842533,0.0,0.0
648,161.75,47.5778,48.9457,157.303,98.081,90.5585,0.00902334,0.0682889,20.9138,35.4531,0.670233,0.0,0.0
656,163.75,47.4144,48.8172,162.366,98.0607,91.3554,0.00889313,0.0681619,20.9138,35.4531,0.594909,0.0,0.0
664,165.75,47.3131,48.913,160.642,98.0674,88.6233,0.00873862,0.068205,20.9138,35.4231,0.850501,0.0,0.0
672,167.75,47.2107,49.1217,163.1,98.0537,88.0541,0.00873411,0.0682202,20.9135,35.383,0.90345,0.0,0.0
680,169.75,47.3521,49.2179,161.781,98.0323,89.0786,0.00894165,0.0683261,20.9139,35.383,0.804452,0.0,0.0
688,171.75,47.0613,48.7533,161.644,97.9836,92.323,0.00918084,0.0686521,20.9133,35.383,0.499802,0.0,0.0
696,173.75,46.9621,49.1171,160.709,97.9802,88.9648,0.0092417,0.0686992,20.9131,35.363,0.810731,0.0,0.0
704,175.75,47.5611,48.8708,160.974,97.9581,87.4849,0.00914851,0.0686617,20.9127,35.353,0.949724,0.0,0.0
712,177.75,47.9916,48.5013,159.799,97.9249,88.5663,0.00905852,0.0688273,20.9123,35.343,0.843684,0.0,0.0
720,179.75,47.2817,49.0982,160.941,97.8842,88.7371,0.00897055,0.0687137,20.9121,35.313,0.824021,0.0,0.0
728,181.75,47.4595,48.162,159.521,97.868,87.1434,0.00888783,0.068679,20.911,35.3029,0.97485,0.0,0.0
736,183.75,47.2085,48.9514,160.845,97.841,88.1679,0.00883076,0.068537,20.9102,35.3029,0.874363,0.0,0.0
744,185.75,46.847,48.305,159.899,97.7871,88.7371,0.00870767,0.0682427,20.9099,35.2829,0.815685,0.0,0.0
752,187.75,47.2894,48.8114,162.963,97.7491,87.6556,0.00860397,0.0681012,20.9098,35.2729,0.91541,0.0,0.0
760,189.75,47.4017,48.7207,163.838,97.703,87.3141,0.00857837,0.0680323,20.9097,35.2929,0.944232,0.0,0.0