File: 01_Data/Polyisocyanurate_Spray_Foam_Insulation/Cone/Polyisocyanurate_Spray_Foam_Insulation_Cone_HF25Scan_241113_R1.csv
Names,Time,Stack TC,Smoke TC,Exh Press,Smoke Comp,Smoke Meas,CO Meter,CO2 Meter,O2 Meter,Sample Mass,Ext Coeff,Start Test,Flame Verif
Chan Gain,,500,500,1,1,1,1,1,1,1,1,1.0,1.0
Offset,,0,0,0.138019,0,0,0,0,0,0,0,0.0,0.0
Gain,,1,1,25.011,12.0976,1865.13,1,1,1,1.00093,0.957506,1.0,1.0
Units,sec,C,C,Pa,%,%,%,%,%,g,/m,,
Baseline,,33.9747,34.7646,168.557,98.0227,103.939,0.000302438,0.0414252,20.9519,-442.368,-0.491748,,
9,2,33.1875,34.2138,164.965,97.9437,104.276,0.000249859,0.0483722,20.9431,48.1149,-0.526202,0.0,0.0
18,4.25,32.7065,33.6432,161.48,97.8661,101.202,0.000455502,0.047585,20.9443,48.0348,-0.281557,0.0,0.0
27,6.5,33.3377,34.3288,154.267,97.8159,83.2729,0.000536496,0.0466896,20.9451,46.9438,1.35197,0.0,1.0
36,8.75,35.0178,37.1689,152.117,97.7284,67.9047,0.000364771,0.04553,20.9464,47.4843,3.05804,0.0,1.0
45,11,36.7925,40.6584,150.88,97.6465,69.8399,0.000168238,0.0448509,20.9473,47.184,2.81497,0.0,1.0
54,13.25,38.6943,44.4087,154.85,97.5689,72.7997,0.000162759,0.0445986,20.9485,46.8737,2.45968,0.0,0.0
63,15.5,41.3001,46.9848,154.021,97.4597,67.7339,0.000966199,0.0736991,20.9482,46.5234,3.05606,0.0,0.0
72,17.75,43.0125,49.126,158.858,97.381,67.6201,0.00470529,0.169274,20.904,46.1931,3.0634,0.0,0.0
81,20,44.965,51.9228,150.791,97.3301,64.3757,0.0109272,0.257565,20.7915,45.8828,3.47199,0.0,0.0
90,22.25,46.8003,54.0708,146.551,97.2341,66.0832,0.018733,0.333722,20.6437,45.6226,3.24381,0.0,0.0
99,24.5,47.2483,55.6196,144.926,97.144,64.5464,0.0237842,0.370629,20.5403,45.2422,3.43367,0.0,0.0
108,26.75,48.3437,56.9558,151.038,97.0462,65.4571,0.0266642,0.389768,20.4772,44.8819,3.30752,0.0,0.0
117,29,49.7173,58.5126,157.831,96.9786,66.3109,0.0292985,0.406386,20.446,44.5115,3.19283,0.0,0.0
126,31.25,50.4656,59.602,150.746,96.8786,61.1882,0.0316861,0.416394,20.4214,44.2213,3.85945,0.0,0.0
135,33.5,51.1629,60.9971,149.391,96.8095,65.7417,0.0328867,0.41615,20.4076,43.901,3.25058,0.0,0.0
144,35.75,52.1929,61.9557,148.269,96.7398,62.3266,0.033154,0.417414,20.4022,43.5506,3.69258,0.0,0.0
153,38,52.6448,62.6565,153.016,96.6511,63.8634,0.0333215,0.419409,20.4001,43.3004,3.4803,0.0,0.0
162,40.25,53.5316,63.378,150.25,96.6046,60.619,0.0336228,0.426883,20.3965,42.9501,3.91417,0.0,0.0
171,42.5,54.3041,64.3874,142.342,96.5319,56.8054,0.0340291,0.43304,20.3869,42.6098,4.45359,0.0,0.0
180,44.75,54.8823,65.1922,145.354,96.4311,62.2697,0.0346289,0.435669,20.3746,42.2394,3.67342,0.0,0.0
189,47,55.6769,65.8197,145.55,96.4086,66.7094,0.035128,0.432266,20.3693,41.8891,3.093,0.0,0.0
198,49.25,55.9091,66.5907,145.21,96.3576,66.1971,0.0354204,0.433233,20.3681,41.6589,3.1533,0.0,0.0
207,51.5,56.7391,67.1559,148.235,96.3167,64.3757,0.0358363,0.438715,20.3693,41.2785,3.38407,0.0,0.0
216,53.75,57.0097,67.4934,148.898,96.2919,61.3589,0.0364226,0.446536,20.3634,40.9282,3.78503,0.0,0.0
225,56,57.4436,68.017,150.54,96.2587,61.9851,0.0360269,0.4426,20.3552,40.5578,3.69686,0.0,0.0
234,58.25,58.1189,68.9355,143.502,96.2362,63.8634,0.0347975,0.435162,20.3594,40.2676,3.44416,0.0,0.0
243,60.5,58.8167,69.1071,154.462,96.214,63.5219,0.0338949,0.434634,20.3677,39.9573,3.48726,0.0,0.0
252,62.75,59.128,69.0875,150.49,96.1941,58.7976,0.0337371,0.435164,20.3694,39.627,4.13464,0.0,0.0
261,65,59.0556,69.6676,153.712,96.1815,58.2284,0.0337803,0.435556,20.3682,39.2566,4.21525,0.0,0.0
270,67.25,59.2181,70.222,142.447,96.217,48.7798,0.0338824,0.440575,20.3669,38.9363,5.70547,0.0,0.0
279,69.5,59.5563,69.7946,145.849,96.2177,54.6425,0.0339459,0.438925,20.3636,38.586,4.75227,0.0,0.0
288,71.75,60.8318,70.9657,148.15,96.2236,58.6268,0.0338144,0.434919,20.3623,38.3258,4.16164,0.0,0.0
297,74,60.6371,70.8377,153.399,96.2192,58.513,0.0337736,0.437448,20.3621,38.1356,4.17758,0.0,0.0
306,76.25,60.7656,70.549,151.664,96.2583,48.4383,0.0338089,0.441868,20.3609,37.8253,5.76809,0.0,0.0
315,78.5,60.5948,69.952,151.229,96.286,56.7485,0.0334919,0.447564,20.3566,37.5851,4.44059,0.0,0.0
324,80.75,60.4404,69.9742,148.854,96.2871,52.8211,0.0322022,0.440661,20.35,37.3949,5.04307,0.0,0.0
333,83,60.8396,69.935,155.381,96.3359,57.1469,0.0300167,0.422177,20.3547,37.3048,4.38618,0.0,0.0
342,85.25,60.1069,69.1262,154.768,96.3429,59.3099,0.0275718,0.411572,20.3732,37.0446,4.07476,0.0,0.0
351,87.5,59.5946,68.2266,154.589,96.3672,66.0832,0.0258293,0.402533,20.385,36.9245,3.1686,0.0,0.0
360,89.75,58.7556,66.7918,159.564,96.3879,73.3689,0.0241265,0.391048,20.3931,36.8244,2.29197,0.0,0.0
369,92,57.7851,65.4573,160.961,96.4311,86.6311,0.0225133,0.378234,20.404,36.7943,0.900139,0.0,0.0
378,94.25,56.3745,62.7254,159.168,96.4677,91.2416,0.0213904,0.364341,20.4116,36.8344,0.467812,0.0,0.0
387,96.5,54.9043,60.8467,165.486,96.5053,93.063,0.0200454,0.335156,20.4282,36.9145,0.305073,0.0,0.0
396,98.75,52.5235,57.9406,162.611,96.5441,95.2259,0.0178548,0.291402,20.4662,36.8944,0.11547,0.0,0.0
405,101,51.5894,56.4707,159.542,96.5972,95.4536,0.0145341,0.237024,20.5419,36.9345,0.100036,0.0,0.0
414,103.25,50.7782,54.5028,163.912,96.6438,97.9011,0.0112596,0.184904,20.6295,36.9245,-0.108569,0.0,0.0
423,105.5,49.3659,52.9695,169.062,96.6988,94.9982,0.007935,0.139481,20.7116,36.9044,0.149022,0.0,0.0
432,107.75,48.6442,51.4929,166.35,96.7589,94.9982,0.00549668,0.104699,20.7876,36.9145,0.154248,0.0,0.0
441,110,47.5437,50.3293,163.772,96.8003,94.8275,0.00372288,0.0781994,20.8569,36.9044,0.172947,0.0,0.0
450,112.25,46.8189,49.0336,165.346,96.8431,95.5105,0.00275308,0.0624665,20.8963,36.9145,0.11638,0.0,0.0
459,114.5,46.051,48.3095,170.704,96.9015,94.429,0.00207234,0.0537628,20.9202,36.9145,0.217085,0.0,0.0
468,116.75,45.5283,46.9112,168.266,96.9594,95.3397,0.00135394,0.049149,20.9338,36.8844,0.141491,0.0,0.0
477,119,44.6262,46.1505,159.208,96.9949,94.6567,0.000814146,0.046377,20.9409,36.8944,0.20495,0.0,0.0
486,121.25,44.0172,45.7853,169.589,97.0362,95.5674,0.00061181,0.0448299,20.9449,36.9145,0.128106,0.0,0.0
495,123.5,44.0661,44.9362,166.232,97.072,95.7951,0.000656832,0.0437559,20.9485,36.9245,0.11122,0.0,0.0
504,125.75,43.4888,44.5662,165.749,97.1171,95.5105,0.000673952,0.0432102,20.9487,36.9245,0.140106,0.0,0.0
513,128,43.3517,43.707,168.806,97.1643,95.852,0.000580479,0.0427196,20.9484,36.9145,0.114213,0.0,0.0
522,130.25,42.9149,43.5047,166.773,97.2097,95.9659,0.000513231,0.0425754,20.9494,36.9145,0.108168,0.0,0.0
531,132.5,42.5185,43.4714,165.35,97.2684,96.1366,0.000675025,0.0423507,20.9501,36.9145,0.0983068,0.0,0.0
540,134.75,42.0951,42.6853,168.609,97.3013,98.3565,0.000903173,0.0419582,20.9503,36.9145,-0.0905937,0.0,0.0
549,137,41.8852,42.4876,161.834,97.3622,98.9826,0.000903273,0.0419174,20.9509,36.9245,-0.138634,0.0,0.0
558,139.25,41.6312,42.429,166.613,97.3903,96.4781,0.000877209,0.0419212,20.9521,36.9245,0.0790349,0.0,0.0
567,141.5,41.3265,41.6733,171.607,97.4464,99.0395,0.000941983,0.0419267,20.9514,36.9345,-0.136204,0.0,0.0
576,143.75,41.2574,41.6633,166.903,97.4626,97.6734,0.000972788,0.0418611,20.9516,36.9145,-0.0181474,0.0,0.0
585,146,41.1585,41.5402,160.454,97.5206,95.6243,0.000883044,0.0418667,20.9519,36.9044,0.164928,0.0,0.0
594,148.25,41.1156,41.464,164.493,97.5605,96.0228,0.000754613,0.0417881,20.9524,36.9345,0.133437,0.0,0.0
603,150.5,40.9277,41.4928,166.756,97.5852,97.3319,0.000692497,0.0417024,20.9526,36.9345,0.0218291,0.0,0.0
612,152.75,40.4175,40.9101,165.521,97.6269,99.7794,0.000619232,0.041789,20.9526,36.9145,-0.183177,0.0,0.0
621,155,40.4426,40.8686,165.104,97.6587,99.4948,0.000527316,0.0417027,20.9527,36.9145,-0.156455,0.0,0.0
630,157.25,40.693,40.6385,164.304,97.7044,100.064,0.000462302,0.0417398,20.9523,36.9245,-0.200432,0.0,0.0
639,159.5,39.8968,40.5761,163.318,97.7454,100.349,0.000500687,0.0418418,20.952,36.9545,-0.220765,0.0,0.0
648,161.75,39.9834,40.4414,163.462,97.7871,100.292,0.000506454,0.0419409,20.9519,36.9145,-0.212415,0.0,0.0
657,164,40.1816,40.2681,161.734,97.8492,100.804,0.000391376,0.0418952,20.9517,36.9445,-0.249881,0.0,0.0
666,166.25,39.2595,39.8436,163.21,97.8584,99.7794,0.000205229,0.0418768,20.9516,36.9044,-0.163286,0.0,0.0
675,168.5,39.6184,40.0826,166.011,97.8898,100.519,0.000254155,0.0418696,20.9515,36.9245,-0.222649,0.0,0.0
684,170.75,39.477,40.2248,162.952,97.9459,99.6656,0.000476772,0.0420089,20.9515,36.9145,-0.146191,0.0,0.0
693,173,38.3069,38.7483,170.738,97.9581,99.8933,0.000519125,0.0424269,20.9503,36.9245,-0.164311,0.0,0.0
702,175.25,38.4067,38.6722,164.475,97.9876,102.113,0.000530427,0.0426438,20.9496,36.9145,-0.346384,0.0,0.0
711,177.5,38.6661,38.1927,161.247,98.0216,100.292,0.000615349,0.0427391,20.9494,36.9245,-0.192302,0.0,0.0
720,179.75,38.3563,38.6082,165.258,98.0681,100.462,0.000613164,0.042758,20.9493,36.9044,-0.202606,0.0,0.0
729,182,38.6505,38.5109,168.867,98.1039,99.7225,0.000600971,0.0425748,20.9492,36.9245,-0.137447,0.0,0.0
738,184.25,38.0468,38.3488,170.714,98.1213,101.032,0.000483824,0.0424393,20.9492,36.9145,-0.245507,0.0,0.0
747,186.5,38.2267,38.1751,160.132,98.1501,99.9502,0.000255739,0.042313,20.9503,36.9545,-0.152651,0.0,0.0
756,188.75,38.1416,38.4284,167.149,98.1574,100.349,0.000155352,0.0421552,20.9496,36.8944,-0.185435,0.0,0.0
765,191,38.0208,37.538,167.609,98.1504,100.462,0.000203268,0.0420809,20.9494,36.8744,-0.195558,0.0,0.0
774,193.25,37.7057,38.3766,169.324,98.1873,98.9826,0.000201504,0.0421298,20.9493,36.9245,-0.0677514,0.0,0.0
783,195.5,38.0445,38.0628,163.735,98.2076,98.8687,0.000242204,0.0419286,20.9492,36.9145,-0.0563493,0.0,0.0
792,197.75,37.8832,38.4705,164.924,98.2088,99.8364,0.000333726,0.0417771,20.9492,36.9245,-0.138058,0.0,0.0
801,200,37.2824,38.1068,165.749,98.1951,100.69,0.000376432,0.0417285,20.9492,36.9145,-0.21075,0.0,0.0
810,202.25,37.7329,38.2809,165.019,98.1973,100.121,0.000481931,0.0416894,20.9492,36.9044,-0.162945,0.0,0.0
819,204.5,37.6697,38.4332,166.78,98.2095,99.5518,0.000534108,0.0415925,20.9492,36.9145,-0.114017,0.0,0.0
828,206.75,37.6018,38.5428,168.148,98.1899,101.032,0.000484225,0.0415075,20.9492,36.9245,-0.239631,0.0,0.0
837,209,37.525,38.2369,166.103,98.1896,101.089,0.000463233,0.0416251,20.9492,36.9044,-0.244393,0.0,0.0
846,211.25,37.3734,38.5711,164.477,98.1836,100.804,0.000526825,0.0415686,20.9512,36.9145,-0.22122,0.0,0.0
855,213.5,37.2469,37.827,160.964,98.1726,100.747,0.000472805,0.0415819,20.9529,36.9345,-0.217423,0.0,0.0
864,215.75,37.6621,38.0143,166.858,98.1578,100.804,0.00032965,0.0415227,20.9536,36.9145,-0.22343,0.0,0.0
870,217.25,37.5272,37.9675,170.5,98.1549,99.9502,0.000248629,0.0415647,20.9539,36.9145,-0.15224,0.0,0.0