File: 01_Data/Nylon_Bourke/STA/N2/30K_min/Nylon_Bourke_STA_N2_30KData_250505_R1.csv
Temp./C,Time/min,DSC/(mW/mg),Mass loss/mg
50.0,0.0,1.60675,-0.0153079
52.5,0.148133,1.87205,-0.0155614
55,0.284115,2.08615,-0.0181268
57.5,0.41057,2.30596,-0.0181364
60,0.530136,2.49396,-0.0201604
62.5,0.644837,2.67581,-0.0178618
65,0.755698,2.83187,-0.0239934
67.5,0.862989,2.98628,-0.0249556
70,0.968274,3.13993,-0.0235971
72.5,1.07178,3.27349,-0.02532
75,1.17268,3.38627,-0.0264767
77.5,1.27239,3.49066,-0.0273425
80,1.3699,3.56531,-0.0270521
82.5,1.46699,3.64337,-0.0299528
85,1.56209,3.69797,-0.0313134
87.5,1.65638,3.74005,-0.0318344
90,1.74906,3.7724,-0.0329037
92.5,1.84057,3.79628,-0.0349238
95,1.93174,3.80065,-0.0362626
97.5,2.022,3.80946,-0.0376441
100,2.11143,3.82384,-0.0377644
102.5,2.19946,3.83264,-0.0383952
105,2.2877,3.8412,-0.037635
107.5,2.37503,3.83899,-0.0389779
110,2.46185,3.85042,-0.0389051
112.5,2.54889,3.86198,-0.0384461
115,2.63508,3.87373,-0.0381093
117.5,2.72065,3.90936,-0.038973
120,2.80589,3.92902,-0.0387297
122.5,2.89091,3.96663,-0.0393001
125,2.97565,4.02342,-0.0392935
127.5,3.05971,4.10959,-0.0389677
130,3.14332,4.22098,-0.0389701
132.5,3.22665,4.40243,-0.0389699
135,3.30951,4.60419,-0.04029
137.5,3.3921,4.81938,-0.0400677
140,3.47378,4.94788,-0.0402775
142.5,3.55495,5.02111,-0.0403301
145,3.63518,5.04309,-0.0402802
147.5,3.71554,5.07133,-0.04095
150,3.7951,5.08064,-0.0402913
152.5,3.87465,5.09854,-0.04029
155,3.95373,5.1064,-0.0401173
157.5,4.03288,5.13027,-0.0402922
160,4.11135,5.13805,-0.038969
162.5,4.19,5.15386,-0.0399575
165,4.26801,5.15675,-0.0402913
167.5,4.34578,5.12521,-0.03898
170,4.42352,5.0979,-0.03898
172.5,4.50042,5.03041,-0.03898
175,4.57727,4.9081,-0.0402901
177.5,4.65402,4.73719,-0.04029
180,4.73,4.51262,-0.04029
182.5,4.80581,4.29415,-0.0412693
185,4.88208,4.18234,-0.04127
187.5,4.95836,4.25625,-0.0408577
190,5.03539,4.50063,-0.03898
192.5,5.1117,4.76847,-0.0402922
195,5.18853,5.03321,-0.0411426
197.5,5.26484,5.24257,-0.0420455
200,5.3407,5.43803,-0.041292
202.5,5.41663,5.59481,-0.0425931
205,5.49262,5.73677,-0.04128
207.5,5.56808,5.84252,-0.0411312
210,5.64363,5.97593,-0.0399597
212.5,5.71893,6.06275,-0.0412801
215,5.79433,6.18192,-0.0412803
217.5,5.8695,6.29775,-0.0409366
220,5.9448,6.43331,-0.0416163
222.5,6.02002,6.5912,-0.04161
225,6.09509,6.77207,-0.04161
227.5,6.17068,6.98414,-0.04161
230,6.24618,7.22685,-0.04161
232.5,6.32133,7.50258,-0.0416091
235,6.39681,7.78427,-0.0403943
237.5,6.47218,8.12004,-0.0410787
240,6.54784,8.45845,-0.04062
242.5,6.62304,8.63979,-0.0406192
245,6.69713,8.64282,-0.0429255
247.5,6.77044,8.39267,-0.04161
250,6.84302,7.94787,-0.0416078
252.5,6.91542,7.54139,-0.0418391
255,6.98799,7.17954,-0.04193
257.5,7.06132,6.93905,-0.04193
260,7.13475,6.78914,-0.0419304
262.5,7.20792,6.7005,-0.04325
265,7.28164,6.64954,-0.0432505
267.5,7.35575,6.62289,-0.0432688
270,7.42945,6.60489,-0.0432701
272.5,7.50343,6.60637,-0.04457
275,7.57678,6.60409,-0.0445658
277.5,7.65096,6.60303,-0.04359
280,7.72463,6.61445,-0.0437614
282.5,7.79875,6.6159,-0.0448958
285,7.87256,6.61809,-0.04391
287.5,7.94669,6.62147,-0.04523
290,8.01962,6.61543,-0.0452127
292.5,8.09458,6.62183,-0.0480901
295,8.16852,6.61234,-0.0480625
297.5,8.2424,6.61596,-0.0494
300,8.31658,6.60751,-0.0494
302.5,8.3909,6.60602,-0.0505256
305,8.46488,6.61224,-0.0507225
307.5,8.53933,6.61239,-0.0501561
310,8.61329,6.60987,-0.0490669
312.5,8.68721,6.60929,-0.05039
315,8.76168,6.59399,-0.0517131
317.5,8.83596,6.60302,-0.05171
320,8.9103,6.60374,-0.05171
322.5,8.98445,6.59067,-0.05171
325,9.05919,6.58771,-0.0530172
327.5,9.13332,6.59258,-0.05566
330,9.20796,6.57149,-0.0556739
332.5,9.28224,6.5686,-0.0556591
335,9.35702,6.56918,-0.0569664
337.5,9.43111,6.56102,-0.0582357
340,9.50567,6.5565,-0.0586275
342.5,9.58097,6.54702,-0.05961
345,9.65571,6.54792,-0.0592798
347.5,9.73062,6.54795,-0.0592328
350,9.80549,6.54967,-0.05994
352.5,9.88032,6.54594,-0.0612631
355,9.9556,6.54801,-0.0625797
357.5,10.0304,6.55272,-0.0625837
360,10.1059,6.54848,-0.06521
362.5,10.181,6.55471,-0.063905
365,10.2563,6.57698,-0.0638974
367.5,10.3316,6.58294,-0.0652099
370,10.4072,6.60538,-0.06653
372.5,10.4827,6.62608,-0.0665129
375,10.5584,6.65923,-0.0678501
377.5,10.6342,6.67696,-0.0691694
380,10.71,6.72347,-0.0704594
382.5,10.7861,6.77487,-0.0717982
385,10.8623,6.84119,-0.073651
387.5,10.9382,6.92422,-0.074441
390,11.0144,7.02967,-0.0769284
392.5,11.0912,7.16507,-0.0771799
395,11.1678,7.32614,-0.0793985
397.5,11.2449,7.53351,-0.0800397
400,11.3223,7.79687,-0.0827261
402.5,11.3999,8.12428,-0.0846039
405,11.4774,8.51077,-0.0886007
407.5,11.5556,8.96643,-0.0937133
410,11.6341,9.52686,-0.0986878
412.5,11.713,10.1693,-0.106968
415,11.7926,10.9464,-0.116409
417.5,11.8725,11.8622,-0.12913
420,11.9534,12.9621,-0.145223
422.5,12.0346,14.1812,-0.168512
425,12.1172,15.596,-0.196409
427.5,12.2002,17.2323,-0.233449
430,12.2841,19.0882,-0.283772
432.5,12.3692,21.2894,-0.351355
435,12.4572,24.1196,-0.44325
437.5,12.5455,27.1372,-0.568066
440,12.6358,30.5652,-0.736947
442.5,12.725,33.7091,-0.949702
445,12.8139,36.6192,-1.25823
447.5,12.9002,38.69,-1.57521
450,12.9835,39.8797,-1.93925
452.5,13.0628,39.786,-2.33944
455,13.1366,38.2074,-2.69527
457.5,13.2038,34.8639,-3.00432
460,13.267,30.2366,-3.31732
462.5,13.3254,24.3853,-3.54732
465,13.3792,17.326,-3.6742
467.5,13.4331,10.3552,-3.78101
470,13.4936,5.56433,-3.84514
472.5,13.5602,2.88679,-3.87942
475,13.6315,1.57638,-3.8989
477.5,13.7056,0.950831,-3.90739
480,13.7815,0.642129,-3.91159
482.5,13.8583,0.487187,-3.91698
485,13.9357,0.400519,-3.91997
487.5,14.0134,0.351745,-3.92264
490,14.0916,0.32487,-3.9213
492.5,14.1698,0.309405,-3.92273
495,14.2481,0.295678,-3.92495
497.5,14.3267,0.278188,-3.92627
500,14.4056,0.270972,-3.92624
502.5,14.4839,0.263738,-3.92692
505,14.5629,0.260599,-3.92626
507.5,14.6418,0.257673,-3.9263
510,14.7208,0.249781,-3.92824
512.5,14.7998,0.247558,-3.92824
515,14.8792,0.243248,-3.92956
517.5,14.9583,0.242201,-3.92956
520,15.0377,0.235552,-3.92956
522.5,15.1172,0.231379,-3.92824
525,15.1965,0.247814,-3.92941
527.5,15.276,0.239359,-3.92956
530,15.3556,0.251254,-3.92904
532.5,15.4354,0.259438,-3.93022
535,15.515,0.247117,-3.93022
537.5,15.5944,0.257458,-3.92956
540,15.6745,0.252291,-3.92825
542.5,15.7544,0.251211,-3.92956
545,15.8342,0.250402,-3.92956
547.5,15.9144,0.244033,-3.92955
550,15.9943,0.235489,-3.92956
552.5,16.0745,0.229504,-3.93133
555,16.1546,0.232106,-3.93186
557.5,16.2348,0.226365,-3.93185
560,16.3151,0.214844,-3.93056
562.5,16.3957,0.204341,-3.93187
565,16.4761,0.208239,-3.93191
567.5,16.5565,0.20883,-3.93064
570,16.6368,0.211683,-3.93187
572.5,16.7175,0.211732,-3.93319
575,16.798,0.219101,-3.93188
577.5,16.8788,0.215904,-3.93318
580,16.9593,0.222883,-3.93418
582.5,17.0402,0.223357,-3.93417
585,17.1214,0.214976,-3.93417
587.5,17.2022,0.221951,-3.93549
590,17.2831,0.215046,-3.93483
592.5,17.3639,0.208579,-3.93414
595,17.4448,0.20293,-3.93497
597.5,17.5257,0.1939,-3.93549
600,17.6067,0.191293,-3.93417
602.5,17.6879,0.178969,-3.93417
605,17.7693,0.17695,-3.93549
607.5,17.8505,0.172652,-3.93417
610,17.9314,0.174906,-3.93554
612.5,18.0129,0.156967,-3.93418
615,18.0939,0.142555,-3.93418
617.5,18.1757,0.139253,-3.9351
620,18.2575,0.13916,-3.9368
622.5,18.3384,0.133004,-3.93418
625,18.42,0.130599,-3.93549
627.5,18.5015,0.124596,-3.93549
630,18.5821,0.118905,-3.93549
632.5,18.6644,0.125357,-3.93516
635,18.7461,0.12169,-3.93516
637.5,18.8277,0.112704,-3.93831
640,18.9092,0.123208,-3.9345
642.5,18.9909,0.130458,-3.93318
645,19.0723,0.121661,-3.9345
647.5,19.154,0.109949,-3.93449
650,19.2355,0.110266,-3.93318
652.5,19.3173,0.116653,-3.93548
655,19.3994,0.105495,-3.93549
657.5,19.481,0.102241,-3.93549
660,19.5623,0.0895044,-3.93549
662.5,19.6451,0.0952993,-3.93483
665,19.7266,0.104688,-3.93516
667.5,19.8087,0.101946,-3.93588
670,19.8907,0.107741,-3.9345
672.5,19.9729,0.117854,-3.9345
675,20.0548,0.126639,-3.9345
677.5,20.1367,0.132801,-3.93581
680,20.219,0.140404,-3.93483
682.5,20.3015,0.163038,-3.93483
685,20.3833,0.150239,-3.93483
687.5,20.4656,0.160027,-3.93582
690,20.548,0.154886,-3.93582
692.5,20.63,0.164774,-3.93714
695,20.7124,0.165862,-3.93714
697.5,20.7948,0.164736,-3.93715
700,20.8772,0.170221,-3.93551
702.5,20.9599,0.18263,-3.93581
705,21.0419,0.183276,-3.93618
707.5,21.1246,0.19517,-3.9345
710,21.2073,0.187993,-3.93451
712.5,21.2895,0.18969,-3.93319
715,21.3726,0.193459,-3.93319
717.5,21.455,0.199954,-3.93453
720,21.5378,0.200556,-3.93582
722.5,21.6201,0.191939,-3.93747
725,21.703,0.17889,-3.93716
727.5,21.7857,0.169773,-3.93714
730,21.8684,0.160053,-3.93713
732.5,21.9513,0.149795,-3.93556
735,22.0339,0.149883,-3.93736
737.5,22.117,0.133781,-3.93735
740,22.1994,0.116676,-3.93802
742.5,22.2823,0.108586,-3.93801
745,22.3649,0.0926192,-3.93538
747.5,22.4482,0.080096,-3.93538
750,22.5308,0.0661202,-3.93604
752.5,22.6137,0.0490085,-3.93605
755,22.6966,0.0372658,-3.93603
757.5,22.7797,0.0397698,-3.93636
760,22.8629,0.0319428,-3.93774
762.5,22.9458,0.0168956,-3.93768
765,23.029,0.0148374,-3.93637
767.5,23.1121,0.0107624,-3.93504
770,23.1951,-0.00110713,-3.93421
772.5,23.2785,-0.00368898,-3.93505
775,23.3618,-0.0162059,-3.93506
777.5,23.445,-0.0137734,-3.93504
780,23.5279,-0.0210014,-3.9357
782.5,23.6116,-0.028804,-3.93705
785,23.695,-0.0321507,-3.93703
787.5,23.7781,-0.0415623,-3.93571
790,23.8616,-0.0475283,-3.93569