File: 01_Data/Nylon_Bourke/STA/N2/30K_min/Nylon_Bourke_STA_N2_30KData_250506_R2.csv
Temp./C,Time/min,DSC/(mW/mg),Mass loss/mg
50.0,0.0,1.65808,-0.00835578
52.5,0.148112,1.9187,-0.00931907
55,0.282481,2.15923,-0.00950281
57.5,0.409615,2.38755,-0.00958553
60,0.529172,2.58594,-0.00981974
62.5,0.642344,2.77785,-0.00846515
65,0.754155,2.94525,-0.0159887
67.5,0.862451,3.10919,-0.0149661
70,0.967003,3.26413,-0.0142846
72.5,1.07015,3.40793,-0.0157147
75,1.1718,3.52861,-0.0186093
77.5,1.2711,3.64349,-0.0177001
80,1.36944,3.74045,-0.0186151
82.5,1.46606,3.81691,-0.0209487
85,1.56147,3.89161,-0.0216442
87.5,1.65582,3.95758,-0.021835
90,1.7487,4.00807,-0.0222193
92.5,1.84076,4.04889,-0.023557
95,1.93111,4.07882,-0.0248127
97.5,2.02011,4.11191,-0.0252397
100,2.11096,4.11776,-0.0261344
102.5,2.19886,4.15301,-0.0261266
105,2.28698,4.17412,-0.02613
107.5,2.37414,4.19127,-0.0260952
110,2.46117,4.22457,-0.0244375
112.5,2.54766,4.24154,-0.0257864
115,2.63381,4.26715,-0.0278566
117.5,2.72016,4.29609,-0.0278947
120,2.80511,4.33436,-0.0285397
122.5,2.88981,4.37773,-0.0292001
125,2.97375,4.44298,-0.027884
127.5,3.0579,4.52171,-0.0292003
130,3.14118,4.66327,-0.0278713
132.5,3.22476,4.84246,-0.027853
135,3.30736,5.08397,-0.0292001
137.5,3.38968,5.28036,-0.0292
140,3.47147,5.41865,-0.0290569
142.5,3.55133,5.49684,-0.0278799
145,3.63232,5.53047,-0.02788
147.5,3.71223,5.5551,-0.02788
150,3.79172,5.56278,-0.027889
152.5,3.87097,5.58973,-0.0265588
155,3.94981,5.61469,-0.02657
157.5,4.02869,5.63945,-0.02657
160,4.10699,5.66126,-0.0252279
162.5,4.18495,5.67367,-0.0265521
165,4.26315,5.67361,-0.0278899
167.5,4.34058,5.67197,-0.0265704
170,4.41746,5.64411,-0.02657
172.5,4.49524,5.56768,-0.0265819
175,4.57181,5.44859,-0.0278903
177.5,4.64811,5.28921,-0.0292001
180,4.72311,5.06989,-0.0278901
182.5,4.79926,4.84534,-0.0265704
185,4.8752,4.71169,-0.0265699
187.5,4.95097,4.7852,-0.0279488
190,5.02774,5.02359,-0.0292172
192.5,5.10384,5.30717,-0.02789
195,5.18072,5.58707,-0.02789
197.5,5.25685,5.81342,-0.0292019
200,5.33267,6.00811,-0.02921
202.5,5.40842,6.1847,-0.0293105
205,5.48401,6.31791,-0.0287991
207.5,5.55975,6.4343,-0.0266299
210,5.63393,6.54585,-0.0271195
212.5,5.70969,6.65676,-0.02811
215,5.78495,6.77628,-0.0284245
217.5,5.86005,6.90013,-0.0313398
220,5.93527,7.0473,-0.0284287
222.5,6.01018,7.20204,-0.0283209
225,6.08545,7.37687,-0.02964
227.5,6.16043,7.5897,-0.02964
230,6.23581,7.83462,-0.02964
232.5,6.31117,8.09254,-0.029628
235,6.38631,8.40041,-0.03096
237.5,6.4619,8.73583,-0.031624
240,6.53715,9.05634,-0.0300625
242.5,6.61188,9.24393,-0.0278799
245,6.68614,9.25187,-0.0278759
247.5,6.75936,8.97898,-0.0291999
250,6.83217,8.51672,-0.0339682
252.5,6.90459,8.1049,-0.0305291
255,6.97748,7.77987,-0.0303769
257.5,7.05036,7.54889,-0.0301899
260,7.12366,7.42164,-0.0301915
262.5,7.19697,7.34315,-0.02887
265,7.27082,7.27889,-0.0292136
267.5,7.34457,7.25051,-0.0292036
270,7.41827,7.23061,-0.0292
272.5,7.4917,7.21013,-0.0292
275,7.56551,7.21032,-0.0288741
277.5,7.63937,7.19921,-0.02986
280,7.71305,7.19844,-0.0311707
282.5,7.78668,7.20092,-0.0318292
285,7.86003,7.1932,-0.03183
287.5,7.93442,7.21338,-0.0307651
290,8.00797,7.20678,-0.0301507
292.5,8.08185,7.20366,-0.03052
295,8.15522,7.19263,-0.0311363
297.5,8.22945,7.19943,-0.03052
300,8.30342,7.20487,-0.03052
302.5,8.37716,7.19953,-0.0318418
305,8.45106,7.19856,-0.0318399
307.5,8.52513,7.20993,-0.0318408
310,8.59894,7.19454,-0.0331598
312.5,8.67295,7.20514,-0.0323902
315,8.74705,7.19962,-0.0301835
317.5,8.82104,7.19333,-0.0334824
320,8.89516,7.19593,-0.03359
322.5,8.9692,7.19218,-0.0336201
325,9.04308,7.18079,-0.0369907
327.5,9.11793,7.18512,-0.0335354
330,9.19191,7.1858,-0.0333809
332.5,9.26663,7.17978,-0.0347028
335,9.34106,7.17088,-0.0368341
337.5,9.41558,7.17619,-0.0366743
340,9.49026,7.15811,-0.0355044
342.5,9.56465,7.15849,-0.03414
345,9.63926,7.14944,-0.0354614
347.5,9.71414,7.15917,-0.03546
350,9.78902,7.16143,-0.0367943
352.5,9.86364,7.15046,-0.0384873
355,9.93844,7.1654,-0.0387467
357.5,10.0138,7.1684,-0.03876
360,10.089,7.15579,-0.0400761
362.5,10.1637,7.14808,-0.04139
365,10.239,7.14868,-0.0413997
367.5,10.3143,7.18356,-0.0413899
370,10.3893,7.21258,-0.0423709
372.5,10.4651,7.23021,-0.0427003
375,10.5404,7.26825,-0.0440194
377.5,10.6159,7.30674,-0.0453414
380,10.6913,7.33908,-0.0453375
382.5,10.7673,7.39757,-0.0453093
385,10.8428,7.45828,-0.0484657
387.5,10.9186,7.53607,-0.0476603
390,10.995,7.63998,-0.048896
392.5,11.0706,7.75214,-0.0515002
395,11.1477,7.91518,-0.0528795
397.5,11.2244,8.1092,-0.055554
400,11.3011,8.37122,-0.0583965
402.5,11.3782,8.70078,-0.0597167
405,11.4558,9.09669,-0.0647335
407.5,11.5337,9.52322,-0.0692058
410,11.6108,10.0059,-0.0719165
412.5,11.69,10.6497,-0.0786169
415,11.7693,11.4289,-0.0870141
417.5,11.8492,12.3365,-0.0996079
420,11.9288,13.4001,-0.117093
422.5,12.0103,14.5845,-0.140085
425,12.0917,15.8947,-0.167703
427.5,12.1738,17.4488,-0.206648
430,12.2577,19.3324,-0.255671
432.5,12.3424,21.5086,-0.324955
435,12.4289,24.101,-0.415675
437.5,12.5166,27.0355,-0.536694
440,12.6056,30.2318,-0.698895
442.5,12.6945,33.3928,-0.908176
445,12.7829,36.3133,-1.20476
447.5,12.8691,38.5316,-1.51812
450,12.9522,39.7284,-1.87883
452.5,13.0321,39.7184,-2.26862
455,13.1059,38.2777,-2.61573
457.5,13.1743,35.3089,-2.9705
460,13.2386,31.0768,-3.24781
462.5,13.2982,25.7623,-3.47388
465,13.3533,18.9981,-3.67392
467.5,13.4073,11.9442,-3.78116
470,13.4663,6.76068,-3.84205
472.5,13.5322,3.86553,-3.87581
475,13.6029,2.4351,-3.89634
477.5,13.6772,1.79987,-3.90656
480,13.7525,1.50866,-3.91135
482.5,13.8292,1.37249,-3.91467
485,13.9066,1.29799,-3.91542
487.5,13.984,1.25317,-3.91805
490,14.0621,1.22859,-3.91798
492.5,14.1401,1.20737,-3.91864
495,14.2185,1.18093,-3.92033
497.5,14.2973,1.16717,-3.91936
500,14.3756,1.14985,-3.92134
502.5,14.4545,1.14951,-3.92199
505,14.5334,1.13532,-3.92199
507.5,14.6123,1.12428,-3.92194
510,14.6914,1.11584,-3.92067
512.5,14.7706,1.11165,-3.92067
515,14.8497,1.10636,-3.92199
517.5,14.929,1.09372,-3.92301
520,15.0088,1.09339,-3.92365
522.5,15.0881,1.08849,-3.92298
525,15.1681,1.09573,-3.92166
527.5,15.2471,1.09578,-3.92166
530,15.3282,1.1013,-3.92166
532.5,15.4084,1.10544,-3.92035
535,15.4884,1.10812,-3.92034
537.5,15.5683,1.09397,-3.92164
540,15.649,1.09044,-3.92153
542.5,15.7293,1.08345,-3.92007
545,15.8098,1.06852,-3.92067
547.5,15.89,1.06806,-3.921
550,15.9702,1.0484,-3.921
552.5,16.0509,1.04783,-3.92067
555,16.1316,1.06055,-3.92067
557.5,16.2115,1.05512,-3.92001
560,16.2925,1.0499,-3.92001
562.5,16.3729,1.03688,-3.92004
565,16.4531,1.05414,-3.92166
567.5,16.5344,1.0364,-3.92067
570,16.6143,1.04285,-3.92089
572.5,16.6958,1.0409,-3.92197
575,16.7766,1.04038,-3.92164
577.5,16.8572,1.0417,-3.92297
580,16.9379,1.03181,-3.92429
582.5,17.019,1.02299,-3.92275
585,17.0992,1.01831,-3.92329
587.5,17.1803,1.00884,-3.9233
590,17.2614,1.00391,-3.92264
592.5,17.3421,0.996152,-3.92242
595,17.4228,0.984654,-3.92166
597.5,17.5038,0.976789,-3.92199
600,17.5844,0.969958,-3.92299
602.5,17.6656,0.960906,-3.92298
605,17.7467,0.956682,-3.92298
607.5,17.8278,0.943421,-3.923
610,17.9087,0.938446,-3.91728
612.5,17.9899,0.913241,-3.92417
615,18.0708,0.884334,-3.92418
617.5,18.1515,0.860121,-3.92418
620,18.2335,0.832606,-3.92418
622.5,18.3143,0.8131,-3.92359
625,18.3956,0.802269,-3.92352
627.5,18.4768,0.794494,-3.92319
630,18.5582,0.795912,-3.92181
632.5,18.6396,0.779598,-3.9229
635,18.7207,0.768894,-3.92418
637.5,18.8021,0.771825,-3.92287
640,18.8837,0.759652,-3.92286
642.5,18.9653,0.751011,-3.92286
645,19.0468,0.733495,-3.92288
647.5,19.1283,0.724978,-3.92257
650,19.2098,0.71514,-3.92155
652.5,19.2914,0.718344,-3.92562
655,19.3731,0.714512,-3.92561
657.5,19.4546,0.715387,-3.92805
660,19.5365,0.708358,-3.92099
662.5,19.618,0.703937,-3.92056
665,19.6997,0.706386,-3.92094
667.5,19.7818,0.715814,-3.92056
670,19.8633,0.725844,-3.92187
672.5,19.9455,0.719051,-3.92253
675,20.0275,0.72644,-3.92253
677.5,20.1095,0.730531,-3.9219
680,20.1917,0.721866,-3.92219
682.5,20.2736,0.71302,-3.92122
685,20.3549,0.719968,-3.92122
687.5,20.4375,0.708735,-3.92122
690,20.5198,0.713527,-3.91991
692.5,20.6018,0.714634,-3.91999
695,20.6837,0.706474,-3.92122
697.5,20.7663,0.70336,-3.92122
700,20.8478,0.693994,-3.92123
702.5,20.9308,0.677925,-3.92253
705,21.0127,0.676797,-3.91989
707.5,21.0952,0.662904,-3.9199
710,21.1773,0.653292,-3.92446
712.5,21.2597,0.633824,-3.92264
715,21.342,0.622176,-3.92265
717.5,21.4243,0.608735,-3.92133
720,21.5069,0.591008,-3.92265
722.5,21.5895,0.569337,-3.92364
725,21.6719,0.550285,-3.92413
727.5,21.7545,0.53179,-3.92295
730,21.8375,0.519932,-3.92122
732.5,21.9201,0.497365,-3.92251
735,22.003,0.480317,-3.92516
737.5,22.0857,0.472118,-3.92613
740,22.1687,0.465167,-3.92319
742.5,22.2515,0.457257,-3.92045
745,22.3344,0.446065,-3.92045
747.5,22.4171,0.437541,-3.92211
750,22.4998,0.41616,-3.92195
752.5,22.5832,0.395022,-3.91959
755,22.6663,0.368364,-3.91825
757.5,22.7486,0.357668,-3.91892
760,22.8322,0.332878,-3.92254
762.5,22.9152,0.304618,-3.92476
765,22.9981,0.289606,-3.91936
767.5,23.0809,0.26752,-3.92067
770,23.164,0.250394,-3.92199
772.5,23.2472,0.226941,-3.92199
775,23.3301,0.23284,-3.92199
777.5,23.4131,0.216163,-3.92067
780,23.4964,0.200288,-3.92067
782.5,23.5794,0.1793,-3.91719
785,23.6626,0.165148,-3.92447
787.5,23.7458,0.156992,-3.92583
790,23.8292,0.13624,-3.92583