File: 01_Data/Helmet_Tetrahedron/STA/N2/10K_min/Helmet_Tetrahedron_STA_N2_10KData_250513_R4.csv
Temp./C,Time/min,DSC/(mW/mg),Mass loss/mg
35.0,0.0,0.615219,-0.020511
37.4,0.324516,0.671534,-0.0185347
39.8,0.633474,0.714926,-0.0222358
42.2,0.930591,0.751413,-0.0207609
44.6,1.2178,0.78447,-0.0235113
47,1.49982,0.827066,-0.0218291
49.4,1.77652,0.858243,-0.0218009
51.8,2.0442,0.895114,-0.0222347
54.2,2.3092,0.934142,-0.021972
56.6,2.57004,0.964851,-0.0233138
59,2.82694,0.988097,-0.0229438
61.4,3.07848,0.983347,-0.0232802
63.8,3.32811,0.986342,-0.0230581
66.2,3.5749,0.983637,-0.0230711
68.6,3.82128,1.00305,-0.024363
71,4.06477,1.0065,-0.024434
73.4,4.30653,1.02167,-0.0246443
75.8,4.54873,1.03415,-0.0236233
78.2,4.79048,1.05599,-0.025675
80.6,5.02974,1.06911,-0.0256795
83,5.26796,1.08262,-0.0268575
85.4,5.50538,1.09224,-0.0267815
87.8,5.74119,1.09985,-0.0267905
90.2,5.97705,1.10785,-0.0267793
92.6,6.21143,1.11938,-0.0254702
95,6.44503,1.13078,-0.0254721
97.4,6.67754,1.1437,-0.0254772
99.8,6.91065,1.15407,-0.0269342
102.2,7.14213,1.16685,-0.0307586
104.6,7.37307,1.18228,-0.0294309
107,7.60469,1.19146,-0.02946
109.4,7.83473,1.20676,-0.0287601
111.8,8.06503,1.2192,-0.0313997
114.2,8.29654,1.2255,-0.0318404
116.6,8.527,1.2312,-0.0320668
119,8.75709,1.24471,-0.0320688
121.4,8.98673,1.25451,-0.0307395
123.8,9.21464,1.25499,-0.0346609
126.2,9.44546,1.26489,-0.0353517
128.6,9.67409,1.26729,-0.0360854
131,9.90234,1.26914,-0.0360748
133.4,10.1307,1.27471,-0.0346969
135.8,10.3585,1.28748,-0.0320542
138.2,10.5871,1.29984,-0.0378699
140.6,10.8139,1.30377,-0.0352402
143,11.0409,1.31181,-0.0365766
145.4,11.2673,1.31379,-0.0395186
147.8,11.493,1.31446,-0.03985
150.2,11.7201,1.33106,-0.0388554
152.6,11.9461,1.31726,-0.0401758
155,12.1719,1.3304,-0.04149
157.4,12.3989,1.32605,-0.0401796
159.8,12.6241,1.34499,-0.0415
162.2,12.8514,1.35498,-0.0421846
164.6,13.0767,1.35444,-0.0434592
167,13.3047,1.36382,-0.0457659
169.4,13.5316,1.38218,-0.0471
171.8,13.7579,1.3939,-0.0431483
174.2,13.9838,1.4004,-0.0431623
176.6,14.2106,1.40912,-0.0441419
179,14.4359,1.40312,-0.0458069
181.4,14.6612,1.40182,-0.0471
183.8,14.8885,1.39813,-0.0457883
186.2,15.1125,1.39364,-0.0457833
188.6,15.3392,1.3982,-0.051041
191,15.5649,1.39885,-0.0502469
193.4,15.79,1.3965,-0.05237
195.8,16.0158,1.40832,-0.0530303
198.2,16.2407,1.40233,-0.05303
200.6,16.4674,1.40014,-0.0526897
203,16.6925,1.3999,-0.0546387
205.4,16.9172,1.40575,-0.0572983
207.8,17.1433,1.40625,-0.0597848
210.2,17.3686,1.39052,-0.0586045
212.6,17.5946,1.39859,-0.0625792
215,17.8201,1.38702,-0.06455
217.4,18.0461,1.38736,-0.0681664
219.8,18.273,1.39101,-0.0734797
222.2,18.4987,1.38876,-0.0748098
224.6,18.7253,1.37768,-0.07477
227,18.9509,1.35488,-0.0813477
229.4,19.1766,1.34277,-0.08673
231.8,19.4023,1.32355,-0.0932802
234.2,19.6293,1.29954,-0.094604
236.6,19.8541,1.27961,-0.102944
239,20.0803,1.25477,-0.111167
241.4,20.3059,1.2216,-0.119331
243.8,20.5315,1.18073,-0.127801
246.2,20.758,1.14061,-0.136909
248.6,20.981,1.09707,-0.148806
251,21.2127,1.31869,-0.164884
253.4,21.4438,1.60676,-0.181485
255.8,21.6716,1.67748,-0.20524
258.2,21.8994,1.70439,-0.223831
260.6,22.1276,1.73245,-0.247356
263,22.3559,1.76019,-0.275032
265.4,22.5823,1.80888,-0.301061
267.8,22.8106,1.86978,-0.331413
270.2,23.0398,1.95577,-0.365673
272.6,23.2647,2.0366,-0.406233
275,23.4966,2.14416,-0.44978
277.4,23.7263,2.29299,-0.495484
279.8,23.9567,2.47346,-0.555301
282.2,24.187,2.68367,-0.618441
284.6,24.4179,2.94188,-0.696305
287,24.6497,3.21756,-0.785394
289.4,24.8818,3.45392,-0.890379
291.8,25.1126,3.61348,-1.0053
294.2,25.3417,3.66187,-1.13125
296.6,25.5692,3.55702,-1.26354
299,25.7951,3.37397,-1.39399
301.4,26.0215,3.17384,-1.52388
303.8,26.2471,2.97805,-1.64693
306.2,26.4739,2.80778,-1.76328
308.6,26.7007,2.64733,-1.87246
311,26.9293,2.62808,-1.97618
313.4,27.1565,2.43296,-2.06424
315.8,27.3814,2.24285,-2.13928
318.2,27.6088,2.05472,-2.20835
320.6,27.8348,1.87792,-2.27021
323,28.0618,1.70498,-2.32779
325.4,28.2895,1.55005,-2.37924
327.8,28.5156,1.39316,-2.42235
330.2,28.7435,1.25125,-2.46357
332.6,28.9721,1.10827,-2.49824
335,29.1995,0.987991,-2.52932
337.4,29.4286,0.869913,-2.55959
339.8,29.6569,0.761407,-2.58499
342.2,29.887,0.677746,-2.61046
344.6,30.115,0.596917,-2.62924
347,30.3446,0.511515,-2.64647
349.4,30.574,0.436443,-2.65836
351.8,30.8037,0.377824,-2.67282
354.2,31.0351,0.330561,-2.68184
356.6,31.2632,0.285336,-2.69167
359,31.4962,0.262986,-2.70244
361.4,31.7272,0.25375,-2.7087
363.8,31.9588,0.239819,-2.71314
366.2,32.1892,0.229596,-2.71701
368.6,32.4214,0.229095,-2.72787
371,32.6534,0.237486,-2.7317
373.4,32.8843,0.238504,-2.73851
375.8,33.1164,0.249541,-2.74214
378.2,33.3492,0.259026,-2.74797
380.6,33.5815,0.260608,-2.75447
383,33.8138,0.270623,-2.75831
385.4,34.0466,0.276279,-2.7652
387.8,34.279,0.286377,-2.7694
390.2,34.509,0.283553,-2.77888
392.6,34.7444,0.28437,-2.78619
395,34.9781,0.295292,-2.79633
397.4,35.2119,0.287974,-2.80618
399.8,35.4442,0.293593,-2.81825
402.2,35.6779,0.29258,-2.82754
404.6,35.9092,0.288916,-2.84075
407,36.1444,0.285183,-2.84914
409.4,36.3773,0.295159,-2.86418
411.8,36.611,0.285166,-2.8806
414.2,36.8428,0.278908,-2.89765
416.6,37.0778,0.269573,-2.91677
419,37.3108,0.255772,-2.93703
421.4,37.5457,0.269945,-2.95848
423.8,37.7786,0.263111,-2.97632
426.2,38.0124,0.276945,-2.99708
428.6,38.2465,0.294415,-3.02572
431,38.4811,0.309497,-3.04879
433.4,38.7159,0.328921,-3.07468
435.8,38.952,0.351144,-3.10414
438.2,39.1867,0.384472,-3.13178
440.6,39.4218,0.408121,-3.15965
443,39.6575,0.440079,-3.18939
445.4,39.8925,0.467321,-3.22265
447.8,40.1272,0.484472,-3.24748
450.2,40.3626,0.51196,-3.2786
452.6,40.5965,0.531625,-3.30647
455,40.8327,0.537792,-3.33401
457.4,41.0692,0.541069,-3.3594
459.8,41.3036,0.533513,-3.38906
462.2,41.538,0.531752,-3.41475
464.6,41.7742,0.532487,-3.43795
467,42.0079,0.518196,-3.46511
469.4,42.2462,0.520024,-3.48503
471.8,42.4826,0.495994,-3.51042
474.2,42.7174,0.486353,-3.53008
476.6,42.9528,0.464017,-3.55237
479,43.1895,0.445167,-3.57098
481.4,43.4235,0.424453,-3.58986
483.8,43.6605,0.409149,-3.60587
486.2,43.8961,0.386964,-3.62343
488.6,44.1334,0.37043,-3.63493
491,44.3688,0.356091,-3.64968
493.4,44.6055,0.336492,-3.65772
495.8,44.8411,0.320743,-3.6655
498.2,45.0779,0.307077,-3.67978
500.6,45.3145,0.307385,-3.68684
503,45.5519,0.295862,-3.69299
505.4,45.7888,0.288108,-3.7015
507.8,46.0268,0.289128,-3.70183
510.2,46.2641,0.283165,-3.70944
512.6,46.501,0.275851,-3.71341
515,46.7382,0.270888,-3.71197
517.4,46.9758,0.26937,-3.71335
519.8,47.213,0.277654,-3.71732
522.2,47.4522,0.27697,-3.7217
524.6,47.6877,0.287978,-3.72202
527,47.9241,0.296316,-3.72524
529.4,48.1632,0.300567,-3.72657
531.8,48.4015,0.309659,-3.72739
534.2,48.6399,0.311973,-3.7291
536.6,48.8776,0.315464,-3.72648
539,49.1147,0.315371,-3.72826
541.4,49.3536,0.329023,-3.7304
543.8,49.5908,0.331674,-3.73437
546.2,49.8297,0.335878,-3.73305
548.6,50.0687,0.337651,-3.73437
551,50.3073,0.35312,-3.73305
553.4,50.5451,0.356966,-3.73447
555.8,50.7859,0.360254,-3.73513
558.2,51.0233,0.361516,-3.7316
560.6,51.2602,0.36708,-3.73344
563,51.5012,0.365137,-3.73687
565.4,51.7403,0.356506,-3.73527
567.8,51.9779,0.364411,-3.73393
570.2,52.2178,0.359046,-3.73771
572.6,52.4574,0.344103,-3.73645
575,52.6961,0.334254,-3.73942
577.4,52.9346,0.325955,-3.73857
579.8,53.1736,0.317187,-3.73667
582.2,53.4145,0.311093,-3.738
584.6,53.6525,0.304579,-3.73868
587,53.8929,0.308218,-3.73858
589.4,54.1322,0.294868,-3.73866
591.8,54.3716,0.274528,-3.74111
594.2,54.6126,0.270029,-3.73962
596.6,54.8515,0.268707,-3.73953
599,55.0914,0.256772,-3.73823
601.4,55.3311,0.240633,-3.74085
603.8,55.5698,0.236936,-3.74085
606.2,55.8098,0.214178,-3.73788
608.6,56.0495,0.20309,-3.74218
611,56.2894,0.191849,-3.74053
613.4,56.5294,0.174202,-3.74216
615.8,56.7695,0.156496,-3.73952
618.2,57.0097,0.138523,-3.74072
620.6,57.2505,0.141075,-3.73823
623,57.4895,0.135205,-3.74167
625.4,57.7295,0.129201,-3.74052
627.8,57.9699,0.115635,-3.74222
630.2,58.2106,0.102222,-3.74085
632.6,58.4512,0.0933693,-3.74216
635,58.692,0.0938148,-3.74164
637.4,58.9318,0.0911947,-3.74334
639.8,59.1721,0.0837308,-3.74118
642.2,59.4123,0.0708854,-3.74124
644.6,59.6528,0.0774867,-3.74249
647,59.894,0.0725888,-3.74193
649.4,60.1342,0.0643599,-3.74385
651.8,60.3739,0.0583268,-3.73986
654.2,60.6158,0.0629522,-3.73989
656.6,60.8546,0.0614871,-3.74251
659,61.0969,0.0438313,-3.74254
661.4,61.3384,0.0896311,-3.74536
663.8,61.5786,0.0889019,-3.74282
666.2,61.8195,0.0773879,-3.74282
668.6,62.0598,0.0738319,-3.74282
671,62.3002,0.0608681,-3.74414
673.4,62.541,0.0461027,-3.74025
675.8,62.7823,0.0317558,-3.74479
678.2,63.0222,0.0200013,-3.74381
680.6,63.2637,0.0200099,-3.73962
683,63.5042,0.0264435,-3.74052
685.4,63.7451,0.00964432,-3.74052
687.8,63.9873,0.00460241,-3.7449
690.2,64.2293,-0.000830195,-3.74372
692.6,64.4699,-0.0123989,-3.74512
695,64.7132,-0.00732571,-3.74238
697.4,64.9548,-0.0172477,-3.745
699.8,65.197,-0.0306339,-3.746
702.2,65.4383,-0.0314599,-3.74502
704.6,65.6805,-0.0468156,-3.74326
707,65.9212,-0.0522969,-3.74326
709.4,66.1635,-0.0536223,-3.74194
711.8,66.4042,-0.0557311,-3.74194
714.2,66.6462,-0.061145,-3.74458
716.6,66.8888,-0.0716293,-3.74558
719,67.1303,-0.0738645,-3.74458
721.4,67.3728,-0.0666152,-3.7459
723.8,67.6148,-0.0794126,-3.74754
726.2,67.8561,-0.0734671,-3.74393
728.6,68.0995,-0.0794745,-3.74752
731,68.3415,-0.0872272,-3.74491
733.4,68.583,-0.0755579,-3.74897
735.8,68.8264,-0.0669504,-3.7437
738.2,69.068,-0.0624719,-3.74633
740,69.2513,-0.0727307,-3.74499