File: 01_Data/Helmet_Tetrahedron/STA/N2/10K_min/Helmet_Tetrahedron_STA_N2_10KData_240226_R1.csv
Temp./C,Time/min,DSC/(mW/mg),Mass loss/mg
60.0,0.0,0.80025,-0.00735664
62.3,0.260697,0.842404,-0.00540649
64.6,0.515243,0.862344,-0.00790354
66.9,0.761543,0.88542,-0.0073743
69.2,1.00631,0.897386,-0.00649108
71.5,1.25058,0.906468,-0.00643617
73.8,1.49127,0.910306,-0.00908476
76.1,1.73059,0.9233,-0.00780011
78.4,1.96848,0.937306,-0.00781667
80.7,2.20599,0.951848,-0.007791
83,2.44051,0.953843,-0.00919361
85.3,2.675,0.971229,-0.0100985
87.6,2.90618,0.983553,-0.00910056
89.9,3.13755,0.986596,-0.00886494
92.2,3.36654,1.01016,-0.00911
94.5,3.59465,1.02101,-0.0104287
96.8,3.8229,1.02428,-0.0091666
99.1,4.0486,1.03567,-0.01043
101.4,4.27533,1.04784,-0.0104295
103.7,4.50006,1.05318,-0.0107523
106,4.72398,1.0743,-0.01108
108.3,4.95029,1.07565,-0.011735
110.6,5.17494,1.08329,-0.0124006
112.9,5.39858,1.08638,-0.0120696
115.2,5.62199,1.09413,-0.0130581
117.5,5.84618,1.10744,-0.0119363
119.8,6.06881,1.11253,-0.0129583
122.1,6.29228,1.11679,-0.0130958
124.4,6.51445,1.12604,-0.0124147
126.7,6.73783,1.13566,-0.0137199
129,6.95965,1.13498,-0.0150933
131.3,7.18025,1.13599,-0.0137168
133.6,7.40415,1.1292,-0.0143776
135.9,7.62584,1.14432,-0.01372
138.2,7.84638,1.14695,-0.0163389
140.5,8.06681,1.1559,-0.0150386
142.8,8.28838,1.1538,-0.0177226
145.1,8.50636,1.15995,-0.01636
147.4,8.72785,1.15559,-0.0173411
149.7,8.94925,1.16206,-0.017723
152,9.16844,1.16407,-0.018
154.3,9.38784,1.17034,-0.01833
156.6,9.60429,1.16147,-0.0182383
158.9,9.82536,1.16579,-0.0180101
161.2,10.0451,1.17174,-0.0193229
163.5,10.2639,1.17599,-0.01932
165.8,10.4834,1.1743,-0.02064
168.1,10.7023,1.18795,-0.0219601
170.4,10.922,1.1733,-0.0203086
172.7,11.1405,1.18513,-0.0213008
175,11.3596,1.19144,-0.02163
177.3,11.578,1.19064,-0.0225866
179.6,11.7979,1.19399,-0.0232717
181.9,12.0155,1.19073,-0.02459
184.2,12.2336,1.19887,-0.02558
186.5,12.4534,1.19974,-0.02591
188.8,12.6729,1.19113,-0.02723
191.1,12.891,1.18726,-0.0282142
193.4,13.1094,1.19276,-0.0288671
195.7,13.3276,1.18961,-0.03018
198,13.546,1.18466,-0.0305096
200.3,13.7656,1.185,-0.0318289
202.6,13.9844,1.17563,-0.0305099
204.9,14.2018,1.17065,-0.0344703
207.2,14.4203,1.16732,-0.0357904
209.5,14.6371,1.16031,-0.0371329
211.8,14.8561,1.1592,-0.039736
214.1,15.0729,1.15463,-0.0423933
216.4,15.292,1.15145,-0.0449944
218.7,15.5097,1.15304,-0.0476284
221,15.7262,1.14017,-0.0482978
223.3,15.9462,1.13367,-0.0509303
225.6,16.1651,1.12268,-0.0556036
227.9,16.3816,1.1082,-0.0588402
230.2,16.6008,1.08811,-0.0631244
232.5,16.8183,1.06908,-0.0677259
234.8,17.0364,1.04976,-0.0750969
237.1,17.2558,1.01569,-0.0779387
239.4,17.473,1.00274,-0.0845115
241.7,17.6914,1.01592,-0.0913795
244,17.913,1.14643,-0.100117
246.3,18.1317,1.26118,-0.111551
248.6,18.348,1.30245,-0.123351
250.9,18.5694,1.33756,-0.137695
253.2,18.7881,1.37096,-0.152113
255.5,19.0078,1.40239,-0.167546
257.8,19.227,1.42538,-0.182214
260.1,19.4453,1.4602,-0.202196
262.4,19.6631,1.5115,-0.223682
264.7,19.8822,1.55088,-0.246213
267,20.1022,1.60455,-0.27146
269.3,20.3205,1.64728,-0.301168
271.6,20.5409,1.71494,-0.330162
273.9,20.7605,1.78396,-0.366269
276.2,20.98,1.85147,-0.404424
278.5,21.2,1.92246,-0.449381
280.8,21.4197,2.0108,-0.497116
283.1,21.6407,2.10644,-0.551045
285.4,21.8615,2.2111,-0.609502
287.7,22.083,2.31644,-0.674426
290,22.3053,2.43142,-0.744904
292.3,22.5263,2.5343,-0.822649
294.6,22.7475,2.64058,-0.904606
296.9,22.9672,2.75064,-0.992235
299.2,23.1896,2.85255,-1.08348
301.5,23.4107,2.96818,-1.18172
303.8,23.6298,3.04253,-1.27706
306.1,23.8509,3.04552,-1.3749
308.4,24.0691,2.92228,-1.46674
310.7,24.2862,2.75581,-1.5544
313,24.5023,2.56154,-1.63146
315.3,24.7218,2.36518,-1.70403
317.6,24.9393,2.1669,-1.7678
319.9,25.1571,1.95405,-1.82532
322.2,25.3753,1.75802,-1.87549
324.5,25.5927,1.5669,-1.92183
326.8,25.8116,1.38362,-1.96182
329.1,26.0297,1.20576,-1.99857
331.4,26.2479,1.03874,-2.0293
333.7,26.466,0.890215,-2.05804
336,26.6846,0.73666,-2.08311
338.3,26.9028,0.634302,-2.10326
340.6,27.1219,0.557658,-2.12442
342.9,27.3428,0.478163,-2.14107
345.2,27.5635,0.417727,-2.15677
347.5,27.7841,0.374577,-2.1708
349.8,28.0042,0.351959,-2.18486
352.1,28.2261,0.328695,-2.19736
354.4,28.4469,0.310451,-2.21001
356.7,28.6679,0.31044,-2.22133
359,28.8902,0.302435,-2.2312
361.3,29.1116,0.302452,-2.24237
363.6,29.3329,0.308424,-2.254
365.9,29.5546,0.30783,-2.26559
368.2,29.7765,0.313219,-2.27638
370.5,30.0001,0.320942,-2.29043
372.8,30.2227,0.332015,-2.30119
375.1,30.4461,0.348076,-2.3161
377.4,30.6684,0.355719,-2.32814
379.7,30.8916,0.365487,-2.34358
382,31.1149,0.376072,-2.35805
384.3,31.3374,0.391767,-2.3752
386.6,31.5607,0.387524,-2.39226
388.9,31.7832,0.383834,-2.41027
391.2,32.007,0.387351,-2.43023
393.5,32.2291,0.383911,-2.44943
395.8,32.4537,0.372537,-2.47087
398.1,32.678,0.360498,-2.49171
400.4,32.9011,0.33629,-2.51408
402.7,33.1244,0.307419,-2.53588
405,33.3468,0.281719,-2.55989
407.3,33.5694,0.240722,-2.58377
409.6,33.7928,0.19831,-2.60628
411.9,34.0158,0.150727,-2.62879
414.2,34.2383,0.107911,-2.64994
416.5,34.4631,0.066334,-2.67044
418.8,34.6869,0.0192492,-2.69163
421.1,34.9098,-0.0128985,-2.71153
423.4,35.1322,-0.0419894,-2.73021
425.7,35.3585,-0.0749098,-2.74798
428,35.5822,-0.101343,-2.76626
430.3,35.8062,-0.121749,-2.7859
432.6,36.0307,-0.14089,-2.8047
434.9,36.2544,-0.177854,-2.8237
437.2,36.4786,-0.190709,-2.84155
439.5,36.7038,-0.201247,-2.86131
441.8,36.9283,-0.200695,-2.88149
444.1,37.153,-0.190935,-2.90201
446.4,37.3781,-0.172714,-2.92431
448.7,37.6048,-0.149855,-2.94746
451,37.8308,-0.113297,-2.97098
453.3,38.056,-0.069215,-2.99574
455.6,38.2828,-0.0228934,-3.01979
457.9,38.5099,0.00988281,-3.04524
460.2,38.7368,0.0418643,-3.06843
462.5,38.9622,0.066338,-3.09314
464.8,39.1885,0.0740865,-3.11749
467.1,39.415,0.0869111,-3.13862
469.4,39.6416,0.0828863,-3.1587
471.7,39.8675,0.073388,-3.17986
474,40.0927,0.070087,-3.19898
476.3,40.3194,0.0689961,-3.2181
478.6,40.545,0.0503365,-3.23523
480.9,40.771,0.031718,-3.25196
483.2,40.9961,0.0260454,-3.26684
485.5,41.222,0.0107205,-3.27963
487.8,41.4482,0.00240077,-3.28946
490.1,41.6742,-0.00728219,-3.30189
492.4,41.8998,-0.0144656,-3.31239
494.7,42.1276,-0.0183525,-3.31973
497,42.3535,-0.031831,-3.32697
499.3,42.5793,-0.0404205,-3.33569
501.6,42.8065,-0.0420018,-3.34143
503.9,43.0325,-0.046697,-3.34835
506.2,43.2589,-0.046551,-3.35211
508.5,43.487,-0.046448,-3.35604
510.8,43.7131,-0.0472533,-3.36134
513.1,43.9407,-0.0462152,-3.36387
515.4,44.1669,-0.044941,-3.36791
517.7,44.3946,-0.0434379,-3.37187
520,44.6211,-0.049244,-3.3739
522.3,44.8486,-0.0436871,-3.37888
524.6,45.0753,-0.0393026,-3.3801
526.9,45.3023,-0.0393991,-3.38145
529.2,45.5299,-0.0382057,-3.38274
531.5,45.7574,-0.0278013,-3.38537
533.8,45.9858,-0.0253053,-3.38696
536.1,46.2142,-0.0122142,-3.38702
538.4,46.4413,-0.00572667,-3.38998
540.7,46.667,-0.00230962,-3.3913
543,46.8974,0.00659119,-3.39394
545.3,47.125,0.0136198,-3.39394
547.6,47.3528,0.0108858,-3.3956
549.9,47.5825,0.0156248,-3.39591
552.2,47.809,0.0187744,-3.39821
554.5,48.0374,0.0144508,-3.39822
556.8,48.2657,0.0120837,-3.40085
559.1,48.4927,0.00612751,-3.39954
561.4,48.721,0.0119117,-3.40193
563.7,48.9498,0.00933546,-3.40145
566,49.1772,-0.000409981,-3.40512
568.3,49.4061,0.00368368,-3.40382
570.6,49.6324,0.00591202,-3.40501
572.9,49.8624,0.00525595,-3.40612
575.2,50.091,-0.000226011,-3.40744
577.5,50.3188,0.000876699,-3.40767
579.8,50.5486,0.00038565,-3.40843
582.1,50.7759,-0.00622752,-3.40842
584.4,51.0047,-0.00252632,-3.40842
586.7,51.2323,-0.0008748,-3.41106
589,51.4608,-0.0130457,-3.41017
591.3,51.6891,-0.00728374,-3.4114
593.6,51.9175,-0.0102409,-3.41271
595.9,52.1445,-0.0220955,-3.41271
598.2,52.3733,-0.0256472,-3.41403
600.5,52.6024,-0.0342566,-3.41527
602.8,52.8294,-0.0472853,-3.41551
605.1,53.058,-0.0430017,-3.41535
607.4,53.2871,-0.0668051,-3.41666
609.7,53.5165,-0.0694799,-3.41798
612,53.7462,-0.0735707,-3.41733
614.3,53.9744,-0.0897865,-3.41831
616.6,54.2019,-0.095202,-3.41962
618.9,54.4322,-0.0936293,-3.41901
621.2,54.6622,-0.101261,-3.42127
623.5,54.8911,-0.116278,-3.42226
625.8,55.1198,-0.121184,-3.42259
628.1,55.3498,-0.131977,-3.4239
630.4,55.5791,-0.140746,-3.42421
632.7,55.8085,-0.160666,-3.42489
635,56.0372,-0.164338,-3.42424
637.3,56.2663,-0.17635,-3.42556
639.6,56.4969,-0.179511,-3.42687
641.9,56.7263,-0.188752,-3.42654
644.2,56.9556,-0.196042,-3.42656
646.5,57.1838,-0.206802,-3.42819
648.8,57.4145,-0.212896,-3.43055
651.1,57.6471,-0.209462,-3.42884
653.4,57.8757,-0.211827,-3.42983
655.7,58.1062,-0.216906,-3.4305
658,58.3353,-0.230095,-3.43181
660.3,58.5648,-0.226419,-3.43313
662.6,58.7955,-0.225909,-3.43379
664.9,59.0261,-0.235461,-3.43247
667.2,59.2556,-0.231239,-3.43411
669.5,59.4881,-0.243263,-3.4351
671.8,59.7198,-0.238548,-3.43512
674.1,59.952,-0.242173,-3.43511
676.4,60.1824,-0.239848,-3.43642
678.7,60.4144,-0.245322,-3.43741
681,60.6456,-0.253193,-3.43873
683.3,60.8768,-0.258332,-3.43873
685.6,61.1087,-0.259737,-3.43939
687.9,61.3398,-0.261277,-3.43938
690.2,61.5706,-0.26365,-3.44129
692.5,61.8017,-0.261409,-3.44136
694.8,62.0335,-0.263669,-3.44169
697.1,62.2667,-0.272978,-3.44207
699.4,62.4987,-0.274085,-3.44268
701.7,62.7309,-0.284011,-3.44331
704,62.9634,-0.28974,-3.44334
706.3,63.1949,-0.296149,-3.44334
708.6,63.4267,-0.300261,-3.44532
710.9,63.6592,-0.29642,-3.44502
713.2,63.8911,-0.307053,-3.44558
715.5,64.1223,-0.303074,-3.44827
717.8,64.3555,-0.321786,-3.44828
720.1,64.5881,-0.311586,-3.44696
722.4,64.8203,-0.325505,-3.44795
724.7,65.0559,-0.331319,-3.44926
727,65.2879,-0.330682,-3.44926
729.3,65.5218,-0.343493,-3.44961
731.6,65.7551,-0.352582,-3.44795
733.9,65.9872,-0.355948,-3.44964
736.2,66.2202,-0.36676,-3.44959
738.5,66.4539,-0.37012,-3.45124
740,66.6063,-0.37534,-3.45124