File: 01_Data/Helmet_Tetrahedron/STA/N2/10K_min/Helmet_Tetrahedron_STA_N2_10KData_250508_R2.csv
Temp./C,Time/min,DSC/(mW/mg),Mass loss/mg
35.0,0.0,0.492876,-0.0210597
37.4,0.410261,0.576397,-0.0150946
39.8,0.770595,0.637794,-0.0210797
42.2,1.10639,0.698422,-0.011667
44.6,1.42054,0.738486,-0.0121859
47,1.72565,0.79145,-0.00925811
49.4,2.01563,0.828872,-0.00785206
51.8,2.30083,0.869029,-0.00979555
54.2,2.57733,0.906937,-0.0100036
56.6,2.84668,0.944042,-0.00892456
59,3.11186,0.959828,-0.00813009
61.4,3.36858,0.975382,-0.00680866
63.8,3.62547,0.972389,-0.00703994
66.2,3.87777,0.983777,-0.00719114
68.6,4.12664,0.984606,-0.00573061
71,4.37498,0.995278,-0.00717513
73.4,4.62107,1.01698,-0.0059293
75.8,4.86558,1.02876,-0.00560029
78.2,5.11032,1.05054,-0.00695317
80.6,5.35024,1.05974,-0.00567505
83,5.5925,1.07521,-0.00690815
85.4,5.83117,1.0947,-0.0105831
87.8,6.06935,1.10105,-0.00648817
90.2,6.30584,1.11727,-0.00673901
92.6,6.54098,1.12841,-0.00919714
95,6.77422,1.14482,-0.00803488
97.4,7.00761,1.15622,-0.00758897
99.8,7.24015,1.17165,-0.007344
102.2,7.47153,1.17767,-0.00791003
104.6,7.703,1.19294,-0.00658442
107,7.93413,1.20247,-0.00791552
109.4,8.16487,1.21193,-0.00883657
111.8,8.39553,1.22497,-0.00789276
114.2,8.62721,1.2343,-0.0104936
116.6,8.85624,1.24455,-0.00987509
119,9.08628,1.25749,-0.00823003
121.4,9.31638,1.26144,-0.00998017
123.8,9.54562,1.26673,-0.0101648
126.2,9.77503,1.27835,-0.0095501
128.6,10.0034,1.28672,-0.00952656
131,10.2319,1.28877,-0.0108671
133.4,10.4592,1.28664,-0.01087
135.8,10.6874,1.29842,-0.0105377
138.2,10.9152,1.31237,-0.01218
140.6,11.142,1.31747,-0.0121901
143,11.3695,1.32154,-0.01252
145.4,11.596,1.32344,-0.0125208
147.8,11.8209,1.32874,-0.0141606
150.2,12.0473,1.33226,-0.0137814
152.6,12.2723,1.34105,-0.0135098
155,12.4997,1.34718,-0.0148133
157.4,12.7236,1.35765,-0.01482
159.8,12.95,1.36032,-0.0154026
162.2,13.1755,1.37714,-0.0156376
164.6,13.4015,1.38381,-0.0181123
167,13.6271,1.38342,-0.01679
169.4,13.8542,1.38789,-0.0167915
171.8,14.0786,1.38504,-0.0164677
174.2,14.3043,1.39323,-0.0194739
176.6,14.529,1.39147,-0.018444
179,14.7558,1.38927,-0.0192415
181.4,14.9809,1.38635,-0.01976
183.8,15.2058,1.39092,-0.0209653
186.2,15.4315,1.38267,-0.02108
188.6,15.6571,1.39234,-0.02107
191,15.882,1.38628,-0.0230209
193.4,16.1075,1.38073,-0.0233722
195.8,16.333,1.37826,-0.0233916
198.2,16.5583,1.38805,-0.0247
200.6,16.7832,1.38644,-0.0243696
203,17.009,1.38931,-0.0256917
205.4,17.2339,1.38602,-0.0280004
207.8,17.4602,1.37784,-0.0270784
210.2,17.6847,1.3816,-0.0309593
212.6,17.9101,1.3775,-0.0322703
215,18.1353,1.37631,-0.03491
217.4,18.3623,1.38031,-0.03623
219.8,18.5867,1.37437,-0.0397795
222.2,18.8122,1.35881,-0.0418344
224.6,19.0378,1.34148,-0.0451302
227,19.2639,1.31904,-0.0469754
229.4,19.4903,1.30863,-0.0506875
231.8,19.7161,1.28424,-0.0563245
234.2,19.94,1.25504,-0.0609349
236.6,20.1676,1.23985,-0.0662048
239,20.3937,1.2063,-0.0710921
241.4,20.6209,1.17266,-0.0790226
243.8,20.8474,1.13254,-0.0869447
246.2,21.0745,1.07822,-0.0958047
248.6,21.2977,1.03444,-0.106443
251,21.5296,1.2407,-0.116013
253.4,21.7595,1.50723,-0.134036
255.8,21.9873,1.58982,-0.153009
258.2,22.2155,1.61851,-0.171609
260.6,22.4434,1.65151,-0.192457
263,22.6704,1.66818,-0.214101
265.4,22.8981,1.71592,-0.238599
267.8,23.1275,1.77491,-0.267663
270.2,23.3549,1.83082,-0.298679
272.6,23.5839,1.91062,-0.336295
275,23.8094,2.01434,-0.369292
277.4,24.0412,2.14451,-0.41733
279.8,24.273,2.30559,-0.468319
282.2,24.5026,2.48662,-0.528882
284.6,24.7344,2.68573,-0.598765
287,24.9649,2.90387,-0.679245
289.4,25.1952,3.09286,-0.774332
291.8,25.4249,3.22799,-0.878977
294.2,25.6553,3.29928,-0.993977
296.6,25.883,3.27839,-1.1162
299,26.1102,3.19797,-1.24228
301.4,26.3375,3.09244,-1.37083
303.8,26.5654,2.98416,-1.5027
306.2,26.7925,2.86062,-1.63259
308.6,27.0199,2.73747,-1.75717
311,27.2489,2.68879,-1.87276
313.4,27.4744,2.4667,-1.97836
315.8,27.7024,2.23514,-2.06624
318.2,27.9285,2.01563,-2.14546
320.6,28.1543,1.82411,-2.21538
323,28.3825,1.62066,-2.27741
325.4,28.6105,1.43884,-2.33197
327.8,28.8382,1.25607,-2.38105
330.2,29.0665,1.09059,-2.42629
332.6,29.294,0.957272,-2.46338
335,29.5221,0.828475,-2.49632
337.4,29.7509,0.69674,-2.52704
339.8,29.9808,0.57806,-2.55196
342.2,30.2089,0.484307,-2.57502
344.6,30.4382,0.385967,-2.59457
347,30.6675,0.307217,-2.61
349.4,30.8942,0.247898,-2.62489
351.8,31.1264,0.178126,-2.63743
354.2,31.3575,0.124019,-2.64772
356.6,31.5872,0.0873404,-2.65617
359,31.8181,0.0708931,-2.66568
361.4,32.0497,0.0462868,-2.67343
363.8,32.281,0.0378989,-2.6812
366.2,32.5119,0.0271567,-2.68586
368.6,32.7437,0.0274212,-2.69111
371,32.9751,0.02561,-2.69701
373.4,33.2074,0.0348329,-2.7022
375.8,33.4385,0.0473796,-2.70855
378.2,33.6714,0.043423,-2.71251
380.6,33.9041,0.0552689,-2.71898
383,34.136,0.0622855,-2.72602
385.4,34.3686,0.0646467,-2.7316
387.8,34.6008,0.0747246,-2.73773
390.2,34.8338,0.0725929,-2.74391
392.6,35.0653,0.0731274,-2.7527
395,35.299,0.0781465,-2.76131
397.4,35.5314,0.0815229,-2.77168
399.8,35.7641,0.06961,-2.78208
402.2,35.9971,0.0670722,-2.79221
404.6,36.23,0.0553826,-2.806
407,36.4625,0.0454574,-2.82047
409.4,36.6964,0.0478182,-2.8342
411.8,36.9298,0.034075,-2.84837
414.2,37.1628,0.0362357,-2.8658
416.6,37.3966,0.0305581,-2.8824
419,37.6305,0.0277285,-2.90236
421.4,37.8642,0.0245362,-2.92206
423.8,38.0986,0.0325448,-2.94221
426.2,38.3325,0.0365889,-2.96678
428.6,38.5667,0.0527347,-2.99042
431,38.802,0.0502941,-3.01641
433.4,39.0345,0.0759666,-3.04397
435.8,39.2693,0.0978368,-3.07112
438.2,39.504,0.127493,-3.09931
440.6,39.7386,0.152884,-3.12867
443,39.9726,0.184069,-3.15685
445.4,40.208,0.214115,-3.18483
447.8,40.4434,0.220039,-3.21466
450.2,40.6787,0.256931,-3.2409
452.6,40.9143,0.253173,-3.27016
455,41.1478,0.2472,-3.29851
457.4,41.3833,0.239654,-3.32517
459.8,41.6199,0.229964,-3.35079
462.2,41.8539,0.227322,-3.37665
464.6,42.0887,0.213053,-3.40232
467,42.3247,0.218906,-3.42835
469.4,42.5608,0.205297,-3.45055
471.8,42.7963,0.187217,-3.47344
474.2,43.0316,0.173854,-3.49563
476.6,43.2676,0.155859,-3.51699
479,43.5045,0.135819,-3.53644
481.4,43.7393,0.104177,-3.55294
483.8,43.9753,0.07542,-3.56983
486.2,44.2119,0.0617219,-3.58562
488.6,44.4477,0.0541867,-3.60048
491,44.6846,0.03218,-3.61248
493.4,44.9203,0.00788936,-3.62346
495.8,45.1553,-0.0180152,-3.63396
498.2,45.3941,-0.0365227,-3.6417
500.6,45.6303,-0.0505859,-3.649
503,45.8676,-0.0583328,-3.65591
505.4,46.1042,-0.0695957,-3.66325
507.8,46.3401,-0.070229,-3.66753
510.2,46.5777,-0.0730061,-3.67278
512.6,46.8145,-0.0639469,-3.67674
515,47.0523,-0.0563473,-3.67839
517.4,47.2887,-0.0496972,-3.68233
519.8,47.5266,-0.0482051,-3.68413
522.2,47.7632,-0.0396741,-3.68628
524.6,48.0018,-0.0353765,-3.6876
527,48.2397,-0.0358367,-3.69089
529.4,48.4767,-0.0279876,-3.69088
531.8,48.7141,-0.011473,-3.6936
534.2,48.9521,0.00401319,-3.69485
536.6,49.1907,0.00650474,-3.69473
539,49.4284,0.0123192,-3.69605
541.4,49.6678,0.0237039,-3.69674
543.8,49.9055,0.0257385,-3.69803
546.2,50.1438,0.035505,-3.6978
548.6,50.3819,0.0383934,-3.69803
551,50.6199,0.0386008,-3.69927
553.4,50.8591,0.0528755,-3.70001
555.8,51.0973,0.0523531,-3.70001
558.2,51.3349,0.0418329,-3.69968
560.6,51.5739,0.0422348,-3.70034
563,51.8126,0.0527213,-3.70033
565.4,52.0509,0.0556407,-3.7013
567.8,52.2887,0.0490816,-3.70231
570.2,52.5282,0.0628373,-3.70215
572.6,52.7663,0.069236,-3.70197
575,53.0059,0.0710987,-3.70328
577.4,53.2454,0.0805326,-3.70265
579.8,53.4851,0.0909427,-3.70363
582.2,53.7235,0.0796401,-3.7036
584.6,53.9619,0.083583,-3.70231
587,54.2024,0.0862212,-3.70363
589.4,54.4411,0.0884757,-3.70363
591.8,54.6805,0.0898262,-3.70164
594.2,54.9208,0.0779362,-3.70541
596.6,55.1605,0.0816413,-3.70429
599,55.4002,0.0791336,-3.70804
601.4,55.6401,0.0807387,-3.70409
603.8,55.8806,0.0673968,-3.70407
606.2,56.1207,0.0653429,-3.70538
608.6,56.3601,0.0350966,-3.70604
611,56.6009,0.00517711,-3.70472
613.4,56.84,-0.0255624,-3.70571
615.8,57.081,-0.0361492,-3.7044
618.2,57.3197,-0.0357242,-3.7044
620.6,57.5585,-0.0353749,-3.70572
623,57.7985,-0.0384683,-3.70374
625.4,58.0378,-0.0307953,-3.7054
627.8,58.2772,-0.023428,-3.70572
630.2,58.5169,-0.0352602,-3.7067
632.6,58.7558,-0.0453836,-3.70406
635,58.9953,-0.0507316,-3.70637
637.4,59.2348,-0.0591894,-3.70637
639.8,59.4746,-0.0612831,-3.70703
642.2,59.7156,-0.0765263,-3.70836
644.6,59.9549,-0.0934924,-3.70942
647,60.1942,-0.104683,-3.70937
649.4,60.4354,-0.116009,-3.70855
651.8,60.6754,-0.123562,-3.70747
654.2,60.9151,-0.124256,-3.70747
656.6,61.1575,-0.129141,-3.70747
659,61.3982,-0.13469,-3.70944
661.4,61.6397,-0.136036,-3.70813
663.8,61.8796,-0.143489,-3.70932
666.2,62.12,-0.149642,-3.70813
668.6,62.3616,-0.146578,-3.70813
671,62.6013,-0.159662,-3.71009
673.4,62.8429,-0.165157,-3.71076
675.8,63.0844,-0.171271,-3.70945
678.2,63.3247,-0.186898,-3.70944
680.6,63.5666,-0.196568,-3.71141
683,63.8073,-0.20941,-3.70977
685.4,64.0494,-0.209929,-3.70977
687.8,64.2907,-0.20842,-3.70879
690.2,64.5324,-0.221613,-3.71017
692.6,64.7719,-0.222681,-3.70879
695,65.0148,-0.226172,-3.7109
697.4,65.2569,-0.172612,-3.70914
699.8,65.4968,-0.171884,-3.70912
702.2,65.7406,-0.17262,-3.71044
704.6,65.9822,-0.180797,-3.7108
707,66.2246,-0.189035,-3.71054
709.4,66.4667,-0.193306,-3.71187
711.8,66.708,-0.202294,-3.71184
714.2,66.9489,-0.217601,-3.71153
716.6,67.1908,-0.227419,-3.71315
719,67.4334,-0.229793,-3.71219
721.4,67.6751,-0.231963,-3.71222
723.8,67.9181,-0.231316,-3.71285
726.2,68.1617,-0.233743,-3.71153
728.6,68.4044,-0.231675,-3.71252
731,68.6477,-0.242753,-3.71121
733.4,68.8903,-0.250125,-3.71186
735.8,69.1325,-0.256518,-3.71219
738.2,69.376,-0.257244,-3.71153
740,69.5567,-0.252992,-3.71253