File: 01_Data/Helmet_Buckle/STA/N2/10K_min/Helmet_Buckle_STA_N2_10KData_250303_R1.csv
Temp./C,Time/min,DSC/(mW/mg),Mass loss/mg
60.0,0.0,0.854671,0.00830314
61.8,0.232242,0.907548,0.00730994
63.6,0.459954,0.963665,0.00806547
65.4,0.678962,1.01347,0.00815454
67.2,0.89352,1.03024,0.00824607
69,1.10349,1.02696,0.00923505
70.8,1.30844,1.01258,0.00846679
72.6,1.51113,0.997191,0.00702258
74.4,1.71247,0.98116,0.0066884
76.2,1.90958,0.987825,0.00585858
78,2.10463,1.00108,0.00597877
79.8,2.30039,1.02543,0.00591863
81.6,2.49115,1.0445,0.00830522
83.4,2.68167,1.0645,0.00724643
85.2,2.86887,1.09397,0.00725062
87,3.05568,1.11095,0.00591917
88.8,3.24186,1.12725,0.00460989
90.6,3.42494,1.14446,0.00462476
92.4,3.60621,1.16798,0.00645143
94.2,3.78723,1.18693,0.00582724
96,3.9674,1.20763,0.00459943
97.8,4.14852,1.23246,0.00461078
99.6,4.32526,1.2559,0.00593713
101.4,4.50306,1.26774,0.00724961
103.2,4.67896,1.29027,0.00716804
105,4.85628,1.29893,0.0059601
106.8,5.03309,1.32895,0.00489276
108.6,5.20649,1.33874,0.00593
110.4,5.38518,1.34867,0.00724318
112.2,5.55958,1.36302,0.00845182
114,5.73332,1.37566,0.00471024
115.8,5.90726,1.38151,0.00472039
117.6,6.08402,1.40791,0.00604457
119.4,6.25542,1.41638,0.00736
121.2,6.43119,1.43566,0.007751
123,6.60464,1.45493,0.00734949
124.8,6.77849,1.47017,0.00536103
126.6,6.95215,1.47098,0.00604033
128.4,7.12381,1.48165,0.00604007
130.2,7.29545,1.48574,0.00701115
132,7.46869,1.49838,0.00609798
133.8,7.64079,1.50748,0.00472037
135.6,7.81222,1.51358,0.00342239
137.4,7.98343,1.52597,0.00472
139.2,8.15645,1.5421,0.00471759
141,8.3258,1.5441,0.00603745
142.8,8.49634,1.55259,0.00637
144.6,8.66813,1.56001,0.00703144
146.4,8.83921,1.57127,0.00602858
148.2,9.00998,1.58385,0.00636003
150,9.17882,1.59874,0.00719546
151.8,9.35041,1.60675,0.00714269
153.6,9.51789,1.60993,0.00582046
155.4,9.68568,1.62595,0.00580831
157.2,9.85861,1.63305,0.0045005
159,10.0287,1.63666,0.00582565
160.8,10.199,1.63868,0.00581999
162.6,10.3708,1.65424,0.00382894
164.4,10.5391,1.66145,0.0045463
166.2,10.7092,1.6646,0.00365711
168,10.8798,1.67454,0.00579362
169.8,11.0497,1.67765,0.00449537
171.6,11.2197,1.67745,0.00448569
173.4,11.3901,1.69316,0.00449953
175.2,11.5596,1.69949,0.00448265
177,11.7299,1.71551,0.00187637
178.8,11.8993,1.71219,0.00343906
180.6,12.0676,1.72467,0.00318053
182.4,12.2388,1.72402,0.00317944
184.2,12.4092,1.72269,0.00449815
186,12.5756,1.73503,0.00450759
187.8,12.7486,1.73742,0.00318746
189.6,12.9179,1.73865,0.0045
191.4,13.0858,1.743,0.00318096
193.2,13.2565,1.74835,0.00284999
195,13.4254,1.76769,0.00250872
196.8,13.5933,1.76527,0.00120884
198.6,13.7666,1.77515,0.0028632
200.4,13.9363,1.78227,0.00296153
202.2,14.1061,1.78422,0.00319717
204,14.2744,1.79168,0.000882668
205.8,14.4454,1.79534,0.000550415
207.6,14.615,1.80785,0.000488028
209.4,14.7836,1.81367,0.00285013
211.2,14.9545,1.82855,0.00154
213,15.1232,1.8288,0.000649831
214.8,15.2934,1.84244,0.00153548
216.6,15.4625,1.86392,0.00173005
218.4,15.6312,1.85645,0.00285
220.2,15.8032,1.86813,0.002862
222,15.972,1.88445,0.00055015
223.8,16.1427,1.90091,0.00154561
225.6,16.3128,1.92397,0.00155606
227.4,16.4826,1.94228,0.00271982
229.2,16.6529,1.95543,-0.00155824
231,16.8228,1.96941,5.14372e-05
232.8,16.9933,1.98865,0.000109505
234.6,17.1627,2.01249,0.00011
236.4,17.3328,2.03122,0.000713077
238.2,17.5029,2.04333,0.000111079
240,17.6729,2.06903,9.4304e-05
241.8,17.8437,2.09643,-0.000961077
243.6,18.0145,2.1458,-0.00182728
245.4,18.1867,2.23699,-0.00132
247.2,18.3582,2.35363,-0.00132
249,18.5307,2.53221,-0.00132729
250.8,18.705,2.88021,-0.000330028
252.6,18.8827,3.45199,-0.00166232
254.4,19.0602,4.02546,-0.00147103
256.2,19.2364,4.50488,-0.00328993
258,19.4131,4.98641,-0.00131889
259.8,19.59,5.54578,-0.00131965
261.6,19.7685,6.02903,-0.000612365
263.4,19.9315,5.3537,-0.00198001
265.2,20.0803,3.36231,-0.000660002
267,20.2395,2.46728,-0.00329994
268.8,20.4033,2.14399,-0.00198322
270.6,20.5736,2.0077,-0.00197115
272.4,20.7417,1.96369,-0.00292661
274.2,20.9124,1.94406,-0.00427967
276,21.0817,1.94228,-0.00428
277.8,21.252,1.93684,-0.00428
279.6,21.4228,1.94282,-0.00362159
281.4,21.593,1.94207,-0.00389908
283.2,21.7639,1.93538,-0.00493999
285,21.935,1.93668,-0.00362093
286.8,22.1042,1.93791,-0.00629844
288.6,22.2754,1.94819,-0.00460516
290.4,22.4454,1.94611,-0.00527049
292.2,22.6164,1.94042,-0.00658487
294,22.7865,1.94904,-0.00756802
295.8,22.9581,1.95114,-0.00528618
297.6,23.1309,1.95514,-0.00522075
299.4,23.3009,1.94284,-0.00756367
301.2,23.4732,1.94065,-0.00757
303,23.6445,1.94998,-0.00756862
304.8,23.8161,1.93243,-0.00822382
306.6,23.9873,1.94266,-0.00689122
308.4,24.1586,1.9425,-0.00922001
310.2,24.33,1.944,-0.00944416
312,24.5029,1.95935,-0.0108696
313.8,24.674,1.95541,-0.01087
315.6,24.8465,1.95896,-0.01186
317.4,25.0179,1.95903,-0.011879
319.2,25.1898,1.96394,-0.0118601
321,25.3614,1.96103,-0.0135
322.8,25.5346,1.96919,-0.0148133
324.6,25.7062,1.97115,-0.0149811
326.4,25.8787,1.98246,-0.0161188
328.2,26.0513,1.98557,-0.0184398
330,26.224,1.99169,-0.0171191
331.8,26.3958,1.99315,-0.0174907
333.6,26.5682,2.00616,-0.0187713
335.4,26.7408,2.02275,-0.0200857
337.2,26.9139,2.03534,-0.0219343
339,27.0865,2.03838,-0.02272
340.8,27.2584,2.06277,-0.0255605
342.6,27.4335,2.07573,-0.02931
344.4,27.6066,2.10304,-0.0289674
346.2,27.7783,2.12785,-0.02898
348,27.9516,2.16534,-0.0302641
349.8,28.1251,2.19908,-0.0355665
351.6,28.2988,2.24877,-0.0384451
353.4,28.4713,2.29949,-0.0409482
355.2,28.6437,2.35034,-0.0475346
357,28.8187,2.41564,-0.0503364
358.8,28.9927,2.47081,-0.0548924
360.6,29.1655,2.52093,-0.0617858
362.4,29.3392,2.56828,-0.0657605
364.2,29.5131,2.60747,-0.0711434
366,29.6874,2.65904,-0.0789515
367.8,29.8616,2.72784,-0.0869198
369.6,30.0356,2.78398,-0.0963349
371.4,30.2099,2.86398,-0.105555
373.2,30.3851,2.89024,-0.117147
375,30.56,2.96572,-0.128975
376.8,30.7349,3.05729,-0.1421
378.6,30.9105,3.1561,-0.155967
380.4,31.0862,3.25186,-0.176505
382.2,31.2599,3.396,-0.196181
384,31.4367,3.51966,-0.215083
385.8,31.6116,3.63163,-0.237537
387.6,31.7873,3.75308,-0.264017
389.4,31.9635,3.89005,-0.292225
391.2,32.1387,4.03198,-0.322473
393,32.3141,4.15704,-0.353146
394.8,32.4889,4.26908,-0.390049
396.6,32.6661,4.43625,-0.431654
398.4,32.8407,4.52868,-0.471337
400.2,33.0174,4.65034,-0.514621
402,33.1928,4.74259,-0.562052
403.8,33.3684,4.83835,-0.611599
405.6,33.5434,4.91096,-0.663145
407.4,33.7194,5.01911,-0.716654
409.2,33.8948,5.05939,-0.77496
411,34.0697,5.12689,-0.83482
412.8,34.2451,5.14667,-0.895448
414.6,34.4206,5.21046,-0.961409
416.4,34.5964,5.29079,-1.03079
418.2,34.7731,5.35696,-1.102
420,34.9484,5.36217,-1.17843
421.8,35.1236,5.40623,-1.25565
423.6,35.2988,5.38743,-1.33446
425.4,35.4738,5.37398,-1.41723
427.2,35.6484,5.34794,-1.50009
429,35.8229,5.32549,-1.5878
430.8,35.9977,5.30683,-1.67277
432.6,36.1718,5.26618,-1.76487
434.4,36.3472,5.21092,-1.86103
436.2,36.522,5.13264,-1.95325
438,36.6941,5.03856,-2.04848
439.8,36.8706,4.92138,-2.14919
441.6,37.0446,4.76285,-2.24308
443.4,37.2173,4.60965,-2.33753
445.2,37.3904,4.43778,-2.43263
447,37.565,4.24507,-2.52321
448.8,37.7375,4.01691,-2.61637
450.6,37.9106,3.77672,-2.70559
452.4,38.0843,3.50074,-2.79148
454.2,38.2582,3.22485,-2.87268
456,38.4308,2.96996,-2.95205
457.8,38.6037,2.69671,-3.02444
459.6,38.7762,2.45358,-3.09451
461.4,38.9498,2.2056,-3.16116
463.2,39.1228,1.99914,-3.22234
465,39.2977,1.8112,-3.28081
466.8,39.4713,1.63129,-3.33341
468.6,39.6456,1.46726,-3.38485
470.4,39.8191,1.31054,-3.42798
472.2,39.9958,1.17256,-3.47187
474,40.1702,1.0416,-3.5117
475.8,40.3455,0.929214,-3.54639
477.6,40.5213,0.821664,-3.57699
479.4,40.6979,0.712521,-3.60502
481.2,40.8736,0.631366,-3.6277
483,41.0493,0.548727,-3.64869
484.8,41.2252,0.488823,-3.66655
486.6,41.4012,0.417459,-3.68259
488.4,41.577,0.362611,-3.6976
490.2,41.7536,0.301403,-3.7102
492,41.9298,0.231254,-3.71894
493.8,42.1066,0.182412,-3.72379
495.6,42.2826,0.144284,-3.72792
497.4,42.4609,0.12887,-3.73065
499.2,42.6373,0.110782,-3.7346
501,42.8143,0.103807,-3.73459
502.8,42.9918,0.0745404,-3.73591
504.6,43.1678,0.074972,-3.73591
506.4,43.3455,0.0684468,-3.73821
508.2,43.5236,0.0699877,-3.73854
510,43.7012,0.0671443,-3.73854
511.8,43.8782,0.0540995,-3.73821
513.6,44.0535,0.0427409,-3.74011
515.4,44.2333,0.0410121,-3.74034
517.2,44.4116,0.0274883,-3.73843
519,44.5877,0.0287045,-3.73975
520.8,44.7644,0.0205992,-3.74008
522.6,44.9439,0.0212798,-3.74273
524.4,45.1199,0.021409,-3.74008
526.2,45.3002,0.0141777,-3.74268
528,45.4777,0.000497442,-3.74272
529.8,45.6549,-0.00152696,-3.74271
531.6,45.8325,6.37163e-05,-3.73985
533.4,46.0103,-0.0010177,-3.74363
535.2,46.1878,-0.000220497,-3.74381
537,46.3658,0.00669131,-3.74261
538.8,46.5415,0.00263369,-3.74392
540.6,46.722,-0.0168074,-3.74392
542.4,46.8994,-0.0098553,-3.74386
544.2,47.0767,-0.0102229,-3.74391
546,47.2539,-0.0146905,-3.74196
547.8,47.4298,-0.00577084,-3.74328
549.6,47.6096,-0.0173615,-3.74556
551.4,47.788,-0.013982,-3.74551
553.2,47.9661,-0.0271811,-3.74359
555,48.1465,-0.0385239,-3.74554
556.8,48.3251,-0.0445202,-3.74424
558.6,48.5005,-0.0378652,-3.74686
560.4,48.6818,-0.036618,-3.74754
562.2,48.8616,-0.0369999,-3.74756
564,49.04,-0.0432579,-3.74625
565.8,49.2184,-0.0531386,-3.74886
567.6,49.3971,-0.0555969,-3.74754
569.4,49.5768,-0.0601588,-3.74755
571.2,49.7545,-0.067063,-3.7482
573,49.935,-0.0801895,-3.74756
574.8,50.1129,-0.0961401,-3.74919
576.6,50.2915,-0.096539,-3.74951
578.4,50.4719,-0.0919484,-3.74984
580.2,50.6497,-0.0994982,-3.74853
582,50.8296,-0.106332,-3.74903
583.8,51.0083,-0.0978149,-3.74977
585.6,51.1873,-0.0979363,-3.74863
587.4,51.3666,-0.103183,-3.75269
589.2,51.5457,-0.103471,-3.74996
590,51.6251,-0.120328,-3.74996