File: 01_Data/Helmet_Buckle/STA/N2/10K_min/Helmet_Buckle_STA_N2_10KData_250304_R2.csv
Temp./C,Time/min,DSC/(mW/mg),Mass loss/mg
60.0,0.0,0.858814,-0.0304931
61.8,0.233999,0.910821,-0.0279329
63.6,0.458283,0.97306,-0.0251909
65.4,0.678377,1.01558,-0.0302738
67.2,0.890664,1.04877,-0.0289545
69,1.10032,1.05051,-0.0281488
70.8,1.30496,1.04454,-0.0305203
72.6,1.50775,1.01929,-0.0307254
74.4,1.70543,1.02206,-0.0309461
76.2,1.90412,1.01676,-0.0304195
78,2.10159,1.02631,-0.0305163
79.8,2.2944,1.03696,-0.0320605
81.6,2.48257,1.05118,-0.031502
83.4,2.67363,1.0747,-0.0334865
85.2,2.86134,1.09532,-0.0321378
87,3.04865,1.1214,-0.0337112
88.8,3.23229,1.14775,-0.0350026
90.6,3.4155,1.15974,-0.0322433
92.4,3.59811,1.18409,-0.0322809
94.2,3.77772,1.20994,-0.0308714
96,3.95802,1.22632,-0.0340318
97.8,4.13691,1.24521,-0.034367
99.6,4.31479,1.26332,-0.0336954
101.4,4.49269,1.28371,-0.0336953
103.2,4.66828,1.30152,-0.0348143
105,4.84616,1.31918,-0.0350203
106.8,5.02052,1.34231,-0.0350295
108.6,5.19547,1.35189,-0.0350324
110.4,5.37125,1.36622,-0.03601
112.2,5.5479,1.38955,-0.0338765
114,5.72029,1.40416,-0.0365449
115.8,5.8957,1.42091,-0.0361207
117.6,6.07019,1.4354,-0.0361203
119.4,6.24429,1.44185,-0.0374395
121.2,6.41803,1.45096,-0.0348086
123,6.59139,1.4612,-0.0361167
124.8,6.76489,1.47644,-0.0361196
126.6,6.93806,1.48289,-0.0374239
128.4,7.10959,1.49298,-0.0374512
130.2,7.28339,1.50347,-0.0361178
132,7.45573,1.51766,-0.0383422
133.8,7.6266,1.51907,-0.0378028
135.6,7.79887,1.53268,-0.0360831
137.4,7.97051,1.54227,-0.0367843
139.2,8.1422,1.56008,-0.03612
141,8.31343,1.56454,-0.0361038
142.8,8.48389,1.57822,-0.0374752
144.6,8.6552,1.59072,-0.03744
146.4,8.82506,1.5931,-0.03876
148.2,8.99492,1.59906,-0.0381407
150,9.16502,1.60575,-0.0374099
151.8,9.33548,1.62232,-0.0374315
153.6,9.50535,1.61775,-0.0361201
155.4,9.67454,1.63029,-0.0367796
157.2,9.84415,1.6352,-0.0393672
159,10.0139,1.64272,-0.0368835
160.8,10.1838,1.64538,-0.0377706
162.6,10.353,1.6555,-0.04117
164.4,10.5225,1.65955,-0.0398469
166.2,10.6901,1.66294,-0.0397493
168,10.8637,1.67408,-0.0410597
169.8,11.0326,1.67814,-0.03974
171.6,11.202,1.67694,-0.04106
173.4,11.3721,1.69636,-0.0422137
175.2,11.5414,1.70164,-0.039401
177,11.7119,1.69266,-0.0407415
178.8,11.8799,1.70769,-0.0391884
180.6,12.0495,1.71529,-0.0391907
182.4,12.221,1.72835,-0.0391881
184.2,12.3903,1.73131,-0.0381996
186,12.5593,1.73523,-0.0413264
187.8,12.7292,1.7406,-0.0421376
189.6,12.8983,1.7444,-0.0408252
191.4,13.0675,1.74226,-0.0408427
193.2,13.2371,1.74201,-0.0431409
195,13.4066,1.74822,-0.0408395
196.8,13.5755,1.74988,-0.0437625
198.6,13.7443,1.75627,-0.04084
200.4,13.914,1.76879,-0.0408423
202.2,14.081,1.78286,-0.0421596
204,14.2521,1.78275,-0.0421776
205.8,14.4229,1.79353,-0.0405663
207.6,14.5913,1.81403,-0.0415005
209.4,14.7605,1.82403,-0.0401739
211.2,14.9304,1.8241,-0.0401788
213,15.0993,1.84104,-0.0414739
214.8,15.2696,1.85768,-0.0447896
216.6,15.437,1.86423,-0.0427162
218.4,15.6088,1.87011,-0.0414005
220.2,15.7789,1.88403,-0.0440301
222,15.9483,1.90531,-0.0439985
223.8,16.118,1.90849,-0.0426374
225.6,16.2874,1.9227,-0.0434477
227.4,16.4578,1.93968,-0.0450194
229.2,16.6277,1.95148,-0.0435949
231,16.7984,1.97132,-0.0427085
232.8,16.9675,1.97006,-0.0428747
234.6,17.1355,1.9986,-0.04534
236.4,17.3079,2.00834,-0.04534
238.2,17.4778,2.02571,-0.0439989
240,17.6472,2.04884,-0.0453399
241.8,17.8181,2.09564,-0.0466626
243.6,17.988,2.13531,-0.0453215
245.4,18.1566,2.22535,-0.0440329
247.2,18.3312,2.35609,-0.0466608
249,18.5044,2.56426,-0.0460045
250.8,18.6792,2.95544,-0.0460129
252.6,18.8567,3.59691,-0.0446898
254.4,19.0336,4.18721,-0.0433695
256.2,19.2105,4.67521,-0.0443602
258,19.3884,5.1983,-0.0443733
259.8,19.5663,5.80121,-0.04304
261.6,19.7422,6.21916,-0.0448565
263.4,19.8977,4.7715,-0.0469857
265.2,20.0493,3.00901,-0.0459949
267,20.2089,2.29674,-0.044687
268.8,20.3753,2.04059,-0.0444391
270.6,20.5438,1.9428,-0.0443544
272.4,20.7115,1.90248,-0.04435
274.2,20.8843,1.89261,-0.0412438
276,21.0534,1.88198,-0.0454605
277.8,21.2248,1.88293,-0.0448884
279.6,21.3952,1.88057,-0.0448
281.4,21.5649,1.8856,-0.04578
283.2,21.7356,1.88956,-0.0470993
285,21.9068,1.88727,-0.0429848
286.8,22.078,1.88762,-0.043102
288.6,22.2478,1.89662,-0.0456791
290.4,22.4194,1.89546,-0.0425005
292.2,22.5907,1.89899,-0.04623
294,22.7606,1.89747,-0.048196
295.8,22.9319,1.88131,-0.0481933
297.6,23.1041,1.89287,-0.0455739
299.4,23.2744,1.89627,-0.0468819
301.2,23.4457,1.8907,-0.04886
303,23.6177,1.89229,-0.0488601
304.8,23.7891,1.8957,-0.04787
306.6,23.9613,1.89168,-0.04919
308.4,24.1314,1.89406,-0.0508256
310.2,24.3032,1.90748,-0.0491494
312,24.4753,1.90344,-0.0502765
313.8,24.6454,1.91493,-0.04951
315.6,24.8171,1.9142,-0.0530861
317.4,24.989,1.92477,-0.0508281
319.2,25.1606,1.91897,-0.0534696
321,25.3329,1.91024,-0.0534663
322.8,25.5057,1.91637,-0.05479
324.6,25.6777,1.92196,-0.0547936
326.4,25.8476,1.92612,-0.0555851
328.2,26.0223,1.92555,-0.0577509
330,26.1945,1.93533,-0.06038
331.8,26.3686,1.95028,-0.0603738
333.6,26.5408,1.95751,-0.0629995
335.4,26.7131,1.96323,-0.0612595
337.2,26.8861,1.9889,-0.0638786
339,27.0586,1.99708,-0.0629276
340.8,27.2316,2.01839,-0.063842
342.6,27.4045,2.04061,-0.0674344
344.4,27.577,2.07891,-0.0692793
346.2,27.7491,2.1071,-0.0701788
348,27.9222,2.13983,-0.0745385
349.8,28.0934,2.19241,-0.0758874
351.6,28.2689,2.24014,-0.0804019
353.4,28.4431,2.30186,-0.087148
355.2,28.6167,2.35138,-0.0886268
357,28.7898,2.39242,-0.0954112
358.8,28.9641,2.4356,-0.100404
360.6,29.1376,2.48405,-0.106715
362.4,29.3112,2.54117,-0.111108
364.2,29.485,2.59107,-0.111614
366,29.6588,2.65789,-0.124645
367.8,29.833,2.71336,-0.129326
369.6,30.0077,2.79247,-0.14314
371.4,30.1803,2.88394,-0.151323
373.2,30.3567,2.94889,-0.16807
375,30.5317,3.03842,-0.18001
376.8,30.7063,3.12991,-0.192182
378.6,30.8811,3.24488,-0.208783
380.4,31.0568,3.33693,-0.227341
382.2,31.2318,3.42422,-0.248206
384,31.4072,3.53307,-0.27054
385.8,31.5822,3.67094,-0.293025
387.6,31.7581,3.80365,-0.321861
389.4,31.9334,3.90701,-0.351231
391.2,32.1062,4.05671,-0.384322
393,32.2858,4.17232,-0.417038
394.8,32.4606,4.27527,-0.451554
396.6,32.6369,4.40068,-0.491216
398.4,32.8123,4.51118,-0.5336
400.2,32.9876,4.60925,-0.578703
402,33.1629,4.71349,-0.628201
403.8,33.3396,4.80742,-0.677487
405.6,33.5143,4.88046,-0.727691
407.4,33.6902,4.9616,-0.786857
409.2,33.8658,5.03855,-0.845078
411,34.0387,5.09965,-0.905638
412.8,34.2156,5.15083,-0.967057
414.6,34.392,5.20871,-1.0351
416.4,34.5667,5.25172,-1.10374
418.2,34.7413,5.26146,-1.17392
420,34.9168,5.27353,-1.2479
421.8,35.0923,5.27194,-1.32758
423.6,35.2673,5.26812,-1.40656
425.4,35.4424,5.26846,-1.48891
427.2,35.6177,5.2755,-1.57386
429,35.7922,5.25601,-1.66229
430.8,35.968,5.2515,-1.75328
432.6,36.1422,5.23199,-1.84433
434.4,36.3181,5.19904,-1.94297
436.2,36.493,5.14357,-2.0391
438,36.6667,5.04718,-2.13991
439.8,36.8411,4.9442,-2.24325
441.6,37.0151,4.80626,-2.34475
443.4,37.1887,4.65365,-2.44502
445.2,37.362,4.46975,-2.54663
447,37.5362,4.26322,-2.64259
448.8,37.7092,4.02394,-2.73975
450.6,37.8812,3.76653,-2.83095
452.4,38.0538,3.48455,-2.91855
454.2,38.2272,3.19171,-3.00055
456,38.3973,2.89845,-3.08251
457.8,38.5718,2.62059,-3.15795
459.6,38.7433,2.35436,-3.22846
461.4,38.9189,2.10917,-3.29362
463.2,39.0913,1.88288,-3.35754
465,39.2652,1.67697,-3.41825
466.8,39.4397,1.48673,-3.47343
468.6,39.6133,1.33334,-3.5228
470.4,39.788,1.17482,-3.56893
472.2,39.9635,1.03811,-3.61176
474,40.1386,0.9145,-3.64934
475.8,40.3134,0.787123,-3.68164
477.6,40.4858,0.686039,-3.71296
479.4,40.6639,0.587784,-3.74068
481.2,40.8401,0.52278,-3.7638
483,41.0159,0.463164,-3.78662
484.8,41.1917,0.379409,-3.80509
486.6,41.3688,0.304189,-3.81914
488.4,41.5451,0.243439,-3.83084
490.2,41.7212,0.186443,-3.84232
492,41.8973,0.13147,-3.85122
493.8,42.0742,0.085098,-3.85927
495.6,42.252,0.0579244,-3.86336
497.4,42.4289,0.0359748,-3.86339
499.2,42.6058,0.0304446,-3.86468
501,42.783,0.0127837,-3.866
502.8,42.9595,-0.0224368,-3.86733
504.6,43.1369,-0.0215097,-3.86699
506.4,43.3134,-0.00726674,-3.86743
508.2,43.4912,-0.0171952,-3.86996
510,43.6682,-0.0338429,-3.86726
511.8,43.8468,-0.0347937,-3.86929
513.6,44.0241,-0.0294459,-3.86995
515.4,44.2013,-0.0327912,-3.87126
517.2,44.3791,-0.0266722,-3.87226
519,44.5562,-0.0324875,-3.8696
520.8,44.7341,-0.0413369,-3.87143
522.6,44.9123,-0.0320408,-3.87142
524.4,45.0892,-0.0420749,-3.87138
526.2,45.2671,-0.0477493,-3.87007
528,45.4451,-0.0468544,-3.87138
529.8,45.6229,-0.0396696,-3.87138
531.6,45.8006,-0.0391987,-3.87271
533.4,45.9792,-0.039392,-3.87139
535.2,46.1575,-0.0384891,-3.874
537,46.3346,-0.0601769,-3.87264
538.8,46.513,-0.0525573,-3.87272
540.6,46.6902,-0.0607046,-3.8727
542.4,46.8692,-0.0639473,-3.87402
544.2,47.047,-0.0687263,-3.87533
546,47.2256,-0.072587,-3.87373
547.8,47.4028,-0.0840797,-3.87316
549.6,47.5807,-0.0800691,-3.87282
551.4,47.7591,-0.0889299,-3.87411
553.2,47.9367,-0.0915554,-3.87379
555,48.1138,-0.0941797,-3.87281
556.8,48.2924,-0.105539,-3.87282
558.6,48.4704,-0.10387,-3.87446
560.4,48.6489,-0.115539,-3.87479
562.2,48.8273,-0.101718,-3.87484
564,49.0057,-0.111274,-3.87215
565.8,49.184,-0.102806,-3.87346
567.6,49.3624,-0.113968,-3.87461
569.4,49.541,-0.105024,-3.87379
571.2,49.7194,-0.101711,-3.87511
573,49.8967,-0.120142,-3.87516
574.8,50.0756,-0.125399,-3.87353
576.6,50.254,-0.135172,-3.87526
578.4,50.4329,-0.131031,-3.87775
580.2,50.6124,-0.135917,-3.87501
582,50.7904,-0.137212,-3.87534
583.8,50.9705,-0.135064,-3.87764
585.6,51.1494,-0.138583,-3.87199
587.4,51.3293,-0.137557,-3.87325
589.2,51.5071,-0.141669,-3.87555
590,51.588,-0.145456,-3.87555