File: 01_Data/Helmet_Buckle/STA/N2/10K_min/Helmet_Buckle_STA_N2_10KData_250306_R3.csv
Temp./C,Time/min,DSC/(mW/mg),Mass loss/mg
60.0,0.0,0.91738,-0.0100317
62.3,0.299251,1.00224,-0.00729304
64.6,0.584875,1.05907,-0.0120247
66.9,0.862114,1.10654,-0.0111799
69.2,1.13033,1.07897,-0.0110171
71.5,1.39179,1.0575,-0.0127503
73.8,1.64908,1.0442,-0.0137577
76.1,1.90296,1.04166,-0.0126062
78.4,2.15207,1.06686,-0.0144838
80.7,2.39658,1.08327,-0.0140456
83,2.64156,1.11964,-0.0102484
85.3,2.88259,1.14695,-0.0164125
87.6,3.12122,1.17755,-0.0158453
89.9,3.35511,1.2035,-0.012519
92.2,3.5896,1.23786,-0.0144082
94.5,3.82131,1.27157,-0.0153701
96.8,4.05099,1.30027,-0.0123229
99.1,4.27818,1.33085,-0.0111761
101.4,4.50671,1.35866,-0.0151635
103.7,4.73044,1.38026,-0.0192169
106,4.95659,1.41424,-0.0123066
108.3,5.1832,1.4288,-0.0164913
110.6,5.40694,1.45296,-0.0166907
112.9,5.63063,1.46945,-0.0146346
115.2,5.85376,1.4912,-0.018244
117.5,6.07662,1.5058,-0.0183668
119.8,6.29912,1.52081,-0.0163043
122.1,6.5208,1.5259,-0.0157004
124.4,6.74345,1.54542,-0.0171287
126.7,6.9643,1.55613,-0.014415
129,7.18617,1.57116,-0.0172542
131.3,7.40644,1.58346,-0.0186328
133.6,7.62638,1.60922,-0.0159205
135.9,7.84681,1.61704,-0.017296
138.2,8.06518,1.62972,-0.0165057
140.5,8.28471,1.63684,-0.0164801
142.8,8.50287,1.65183,-0.0104567
145.1,8.72175,1.66435,-0.010482
147.4,8.94025,1.6698,-0.0168419
149.7,9.1579,1.67732,-0.0269213
152,9.37556,1.69199,-0.0221181
154.3,9.59292,1.70959,-0.0105824
156.6,9.80835,1.71739,-0.0167961
158.9,10.0269,1.7276,-0.0148792
161.2,10.2422,1.73677,-0.0232573
163.5,10.4614,1.74618,-0.0204267
165.8,10.677,1.74786,-0.0190241
168.1,10.8967,1.76632,-0.01713
170.4,11.1138,1.76239,-0.0204094
172.7,11.3323,1.78095,-0.0191098
175,11.5505,1.78227,-0.0248108
177.3,11.768,1.78856,-0.0187369
179.6,11.9845,1.79472,-0.0195623
181.9,12.2026,1.80663,-0.0176495
184.2,12.4204,1.80653,-0.0223796
186.5,12.6374,1.81953,-0.01625
188.8,12.8548,1.82179,-0.00691484
191.1,13.0708,1.83479,-0.0277692
193.4,13.2884,1.83711,-0.0188796
195.7,13.5054,1.83799,-0.0189189
198,13.7223,1.84668,-0.0194635
200.3,13.9388,1.85486,-0.0203997
202.6,14.1565,1.858,-0.0254391
204.9,14.3729,1.86492,-0.0298323
207.2,14.59,1.87871,-0.0205295
209.5,14.8074,1.90358,-0.0171153
211.8,15.0241,1.9115,-0.0208738
214.1,15.2433,1.91185,-0.0253394
216.4,15.4586,1.93272,-0.0217614
218.7,15.6772,1.94832,-0.0173261
221,15.8947,1.96725,-0.0169012
223.3,16.1129,1.98837,-0.0239325
225.6,16.3298,2.00884,-0.0265521
227.9,16.548,2.0299,-0.0257329
230.2,16.766,2.05075,-0.0249204
232.5,16.985,2.08118,-0.0188949
234.8,17.2025,2.10504,-0.0250339
237.1,17.4197,2.12324,-0.0218655
239.4,17.6383,2.16431,-0.0278605
241.7,17.8565,2.20508,-0.0284839
244,18.0757,2.27539,-0.0257795
246.3,18.2949,2.41269,-0.0243029
248.6,18.515,2.60878,-0.0249197
250.9,18.7389,3.00231,-0.023515
253.2,18.9655,3.81346,-0.0264566
255.5,19.1938,4.60985,-0.019546
257.8,19.4193,5.18602,-0.0280866
260.1,19.6452,5.79089,-0.0254624
262.4,19.8682,6.13271,-0.02953
264.7,20.0619,3.88782,-0.0308528
267,20.2648,2.53903,-0.0308501
269.3,20.4771,2.16852,-0.02558
271.6,20.6931,2.06263,-0.0254649
273.9,20.9102,2.02761,-0.0268995
276.2,21.1288,2.02041,-0.0273059
278.5,21.3484,2.01085,-0.0309691
280.8,21.5666,2.00646,-0.03096
283.1,21.7852,2.01206,-0.0309231
285.4,22.0038,2.01711,-0.0280023
287.7,22.2228,2.01338,-0.0294673
290,22.4402,2.0138,-0.0264591
292.3,22.6582,2.00949,-0.0299739
294.6,22.8807,2.01173,-0.0281923
296.9,23.0997,2.00226,-0.0314184
299.2,23.3188,2.00421,-0.0316124
301.5,23.5383,2.00361,-0.0296427
303.8,23.7584,1.98798,-0.035338
306.1,23.9783,1.99221,-0.0342515
308.4,24.1985,1.98545,-0.0370853
310.7,24.4187,1.99031,-0.0344085
313,24.6397,1.98657,-0.0377678
315.3,24.8596,1.99307,-0.03634
317.6,25.0803,1.99296,-0.0386953
319.9,25.3015,1.99983,-0.038613
322.2,25.5216,2.0006,-0.0366888
324.5,25.7433,2.00362,-0.0379978
326.8,25.9639,2.00971,-0.0445021
329.1,26.1858,2.00777,-0.0459927
331.4,26.407,2.01889,-0.0418583
333.7,26.6277,2.01302,-0.0463185
336,26.8499,2.03737,-0.0502081
338.3,27.0715,2.04462,-0.0514837
340.6,27.2934,2.06785,-0.053875
342.9,27.5162,2.08591,-0.0622628
345.2,27.7384,2.10204,-0.0558229
347.5,27.9595,2.13002,-0.0567377
349.8,28.1831,2.16236,-0.0625611
352.1,28.4056,2.20463,-0.0631288
354.4,28.6294,2.25907,-0.071595
356.7,28.8527,2.32475,-0.0726981
359,29.0735,2.40452,-0.0759734
361.3,29.2998,2.49973,-0.0801662
363.6,29.5223,2.59423,-0.0849208
365.9,29.7464,2.65893,-0.101592
368.2,29.9697,2.72982,-0.112051
370.5,30.1926,2.76908,-0.122774
372.8,30.4162,2.8359,-0.128011
375.1,30.6398,2.89063,-0.142714
377.4,30.8628,2.92317,-0.156649
379.7,31.086,3.00224,-0.169078
382,31.3093,3.05003,-0.18915
384.3,31.5344,3.12976,-0.214611
386.6,31.7593,3.3358,-0.250641
388.9,31.9849,3.47431,-0.271955
391.2,32.2117,3.64424,-0.312719
393.5,32.4367,3.78141,-0.342865
395.8,32.6621,3.91631,-0.385634
398.1,32.8879,4.06807,-0.435829
400.4,33.1134,4.21021,-0.480861
402.7,33.3393,4.35461,-0.530886
405,33.5651,4.47118,-0.588562
407.3,33.7918,4.60709,-0.659346
409.6,34.0199,4.78915,-0.72581
411.9,34.2469,4.91429,-0.799508
414.2,34.4748,5.07297,-0.885672
416.5,34.7021,5.18061,-0.965492
418.8,34.9289,5.28056,-1.056
421.1,35.1563,5.37727,-1.16296
423.4,35.3827,5.45955,-1.26658
425.7,35.6097,5.53005,-1.37258
428,35.837,5.56215,-1.4918
430.3,36.0632,5.56252,-1.61828
432.6,36.288,5.53734,-1.74786
434.9,36.5129,5.4343,-1.8789
437.2,36.7361,5.29705,-2.01879
439.5,36.9597,5.11302,-2.1511
441.8,37.1831,4.88414,-2.28976
444.1,37.4057,4.61489,-2.41915
446.4,37.6274,4.30382,-2.54959
448.7,37.8497,3.96495,-2.67958
451,38.0698,3.60194,-2.79561
453.3,38.2921,3.23114,-2.90653
455.6,38.5137,2.85114,-3.01386
457.9,38.7352,2.50268,-3.11365
460.2,38.9576,2.15315,-3.20902
462.5,39.1814,1.89529,-3.28998
464.8,39.4045,1.62564,-3.3676
467.1,39.6289,1.38042,-3.43537
469.4,39.8527,1.15626,-3.49905
471.7,40.0787,0.958372,-3.56312
474,40.3021,0.774162,-3.60616
476.3,40.5264,0.619473,-3.64914
478.6,40.7515,0.484193,-3.68707
480.9,40.9771,0.362273,-3.711
483.2,41.2025,0.267144,-3.73577
485.5,41.4281,0.176009,-3.75137
487.8,41.6556,0.0993751,-3.77302
490.1,41.8817,0.0288188,-3.77305
492.4,42.1083,-0.0362581,-3.78463
494.7,42.3359,-0.0727335,-3.79057
497,42.563,-0.0953901,-3.79019
499.3,42.7907,-0.114756,-3.79393
501.6,43.019,-0.14362,-3.8014
503.9,43.2467,-0.151411,-3.79097
506.2,43.4743,-0.161449,-3.79508
508.5,43.703,-0.174099,-3.79909
510.8,43.9301,-0.192462,-3.8042
513.1,44.1594,-0.203169,-3.80241
515.4,44.3866,-0.213509,-3.79689
517.7,44.6148,-0.220744,-3.80097
520,44.8434,-0.221625,-3.80145
522.3,45.0707,-0.219165,-3.80698
524.6,45.2994,-0.220785,-3.80707
526.9,45.5265,-0.222508,-3.79676
529.2,45.7545,-0.22691,-3.80889
531.5,45.9826,-0.23579,-3.81572
533.8,46.2086,-0.316477,-3.79827
536.1,46.4389,-0.350805,-3.80126
538.4,46.6681,-0.373401,-3.80743
540.7,46.8966,-0.3777,-3.80759
543,47.1264,-0.322527,-3.80518
545.3,47.3561,-0.257945,-3.80676
547.6,47.5839,-0.279096,-3.81634
549.9,47.8145,-0.278592,-3.8043
552.2,48.0428,-0.284001,-3.80458
554.5,48.2722,-0.276852,-3.80366
556.8,48.502,-0.363851,-3.81106
559.1,48.731,-0.381245,-3.80659
561.4,48.9599,-0.371176,-3.81034
563.7,49.1884,-0.36992,-3.80737
566,49.4177,-0.327914,-3.80873
568.3,49.6465,-0.278216,-3.80452
570.6,49.8752,-0.26959,-3.80714
572.9,50.1045,-0.259906,-3.80935
575.2,50.3346,-0.256701,-3.81049
577.5,50.5663,-0.264009,-3.81663
579.8,50.7955,-0.273487,-3.80655
582.1,51.0259,-0.384912,-3.81298
584.4,51.2526,-0.408895,-3.80383
586.7,51.4863,-0.299977,-3.80883
589,51.7155,-0.270415,-3.81154
591.3,51.9446,-0.402867,-3.81351
593.6,52.175,-0.415779,-3.80901
595.9,52.4062,-0.30586,-3.81164
598.2,52.6371,-0.305301,-3.81845
600.5,52.8675,-0.308848,-3.80936
602.8,53.0972,-0.318442,-3.81452
605.1,53.3279,-0.311499,-3.81077
607.4,53.5597,-0.200461,-3.81363
609.7,53.7873,-0.314845,-3.80767
612,54.02,-0.237649,-3.81638
614.3,54.2522,-0.332274,-3.81193
616.6,54.4817,-0.369874,-3.81511
618.9,54.7124,-0.506107,-3.81709
621.2,54.9449,-0.328683,-3.80938
623.5,55.1758,-0.471626,-3.81858
625.8,55.4063,-0.39582,-3.8099
628.1,55.6371,-0.39997,-3.8149
630.4,55.8679,-0.463731,-3.81332
632.7,56.1011,-0.432061,-3.81527
635,56.332,-0.53313,-3.81565
637.3,56.5637,-0.553296,-3.81548
639.6,56.7961,-0.448712,-3.81594
641.9,57.0276,-0.442826,-3.81691
644.2,57.2593,-0.568141,-3.8211
646.5,57.4897,-0.588285,-3.81458
648.8,57.7212,-0.607288,-3.81204
651.1,57.9519,-0.645928,-3.81979
653.4,58.183,-0.54083,-3.8198
655.7,58.4118,-0.613782,-3.82396
658,58.6448,-0.632164,-3.81277
660.3,58.8767,-0.51566,-3.81725
662.6,59.1066,-0.622348,-3.82183
664.9,59.3379,-0.646425,-3.81975
667.2,59.5697,-0.6576,-3.81847
669.5,59.7999,-0.660455,-3.81733
671.8,60.0329,-0.665203,-3.82066
674.1,60.2639,-0.659006,-3.8204
676.4,60.4957,-0.650317,-3.8202
678.7,60.7295,-0.534622,-3.81849
681,60.9612,-0.5694,-3.81664
683.3,61.1939,-0.55897,-3.82252
685.6,61.429,-0.56896,-3.8267
687.9,61.6604,-0.595206,-3.82096
690.2,61.8928,-0.579285,-3.82367
692.5,62.1243,-0.583325,-3.81572
694.8,62.356,-0.591715,-3.82218
697.1,62.5876,-0.573029,-3.82629
699.4,62.8186,-0.612722,-3.82003
701.7,63.0507,-0.630689,-3.81858
704,63.2826,-0.613024,-3.82538
706.3,63.5153,-0.574691,-3.82911
708.6,63.7466,-0.569582,-3.82058
710.9,63.9782,-0.542093,-3.8191
713.2,64.2088,-0.537008,-3.82078
715.5,64.4407,-0.524334,-3.82417
717.8,64.6731,-0.560482,-3.82645
720.1,64.9045,-0.578464,-3.82164
722.4,65.1374,-0.562131,-3.82564
724.7,65.3697,-0.572971,-3.82527
727,65.6008,-0.580956,-3.82264
729.3,65.8341,-0.597612,-3.82523
731.6,66.0657,-0.532087,-3.82791
733.9,66.2971,-0.554732,-3.82221
736.2,66.5284,-0.623327,-3.81693
738.5,66.7612,-0.600741,-3.82832
740,66.913,-0.588328,-3.83262