File: 01_Data/Fiber_Reinforced_Helmet_Shell/STA/N2/10K_min/Fiber_Reinforced_Helmet_Shell_STA_N2_10KData_240125_R1.csv
Temp./C,Time/min,DSC/(mW/mg),Mass loss/mg
60.0,0.0,0.586408,-0.0149413
62.3,0.257638,0.607367,-0.0162638
64.6,0.506838,0.633998,-0.0172658
66.9,0.754486,0.629942,-0.0163368
69.2,0.999606,0.62703,-0.018439
71.5,1.24104,0.63303,-0.01767
73.8,1.48243,0.648314,-0.0175841
76.1,1.72075,0.66205,-0.020111
78.4,1.95749,0.667673,-0.0203001
80.7,2.192,0.692184,-0.0209003
83,2.42583,0.693861,-0.020596
85.3,2.65764,0.706949,-0.0232743
87.6,2.88853,0.732634,-0.02294
89.9,3.11731,0.737131,-0.0242602
92.2,3.34615,0.738858,-0.0256176
94.5,3.57344,0.750644,-0.02558
96.8,3.79924,0.75766,-0.0255697
99.1,4.02134,0.770132,-0.0281861
101.4,4.24823,0.768432,-0.0295284
103.7,4.47254,0.775987,-0.02986
106,4.69401,0.771583,-0.03118
108.3,4.91878,0.777371,-0.0311788
110.6,5.14112,0.778249,-0.0322238
112.9,5.36451,0.779108,-0.0321197
115.2,5.58612,0.791558,-0.03447
117.5,5.80932,0.78068,-0.0361157
119.8,6.03202,0.784312,-0.0371557
122.1,6.25362,0.7917,-0.0365339
124.4,6.47441,0.795539,-0.0370654
126.7,6.69487,0.790671,-0.0370974
129,6.91529,0.785296,-0.03875
131.3,7.13619,0.788267,-0.039739
133.6,7.35571,0.79457,-0.0400595
135.9,7.57702,0.787231,-0.04006
138.2,7.79554,0.786903,-0.03941
140.5,8.01599,0.789541,-0.0400699
142.8,8.23625,0.791142,-0.04139
145.1,8.45515,0.794795,-0.04139
147.4,8.6743,0.787431,-0.0427105
149.7,8.89383,0.781281,-0.0433591
152,9.11178,0.783921,-0.04336
154.3,9.32978,0.780175,-0.04468
156.6,9.55054,0.78266,-0.0456324
158.9,9.76777,0.799159,-0.04567
161.2,9.98544,0.798474,-0.0456701
163.5,10.2045,0.799572,-0.0474075
165.8,10.4239,0.813347,-0.0483
168.1,10.642,0.815322,-0.04896
170.4,10.8633,0.812798,-0.0483021
172.7,11.0827,0.820804,-0.050948
175,11.3015,0.827068,-0.053247
177.3,11.5199,0.836903,-0.05193
179.6,11.7375,0.839322,-0.0542317
181.9,11.9572,0.848325,-0.05291
184.2,12.1759,0.86426,-0.0539006
186.5,12.3938,0.865421,-0.05555
188.8,12.611,0.861558,-0.05687
191.1,12.8297,0.877981,-0.05687
193.4,13.0478,0.886769,-0.0565417
195.7,13.2662,0.893219,-0.0575299
198,13.4852,0.905456,-0.05951
200.3,13.7028,0.920252,-0.0601588
202.6,13.9215,0.93932,-0.0621301
204.9,14.1399,0.958574,-0.0621486
207.2,14.3592,0.968395,-0.06609
209.5,14.5779,0.996909,-0.0668766
211.8,14.7974,1.02136,-0.0696854
214.1,15.0159,1.04617,-0.0723502
216.4,15.2359,1.09004,-0.0766001
218.7,15.4558,1.13514,-0.0792644
221,15.6752,1.17941,-0.0825812
223.3,15.8941,1.22969,-0.0883704
225.6,16.1141,1.29401,-0.0911301
227.9,16.3327,1.34726,-0.0954953
230.2,16.5522,1.41337,-0.100809
232.5,16.7713,1.47593,-0.107054
234.8,16.9912,1.52625,-0.112881
237.1,17.2106,1.5504,-0.12111
239.4,17.4296,1.56757,-0.129873
241.7,17.6457,1.52843,-0.137109
244,17.8653,1.46512,-0.146192
246.3,18.083,1.40184,-0.15488
248.6,18.302,1.33781,-0.163807
250.9,18.52,1.27539,-0.17304
253.2,18.7392,1.21507,-0.183061
255.5,18.9576,1.16085,-0.193338
257.8,19.1763,1.13212,-0.202327
260.1,19.3947,1.10252,-0.214095
262.4,19.614,1.09347,-0.226105
264.7,19.8337,1.06791,-0.239822
267,20.053,1.06486,-0.253615
269.3,20.2718,1.0534,-0.26809
271.6,20.4925,1.03559,-0.286664
273.9,20.7114,0.986543,-0.307198
276.2,20.9305,0.889348,-0.327297
278.5,21.1474,0.779986,-0.347166
280.8,21.3679,0.675015,-0.370186
283.1,21.5869,0.598701,-0.391836
285.4,21.8061,0.562395,-0.414043
287.7,22.0278,0.560002,-0.431527
290,22.2469,0.566802,-0.450171
292.3,22.4671,0.58378,-0.463286
294.6,22.6885,0.600426,-0.474195
296.9,22.9075,0.616687,-0.485231
299.2,23.1281,0.627892,-0.495463
301.5,23.349,0.638445,-0.503647
303.8,23.5708,0.635929,-0.511248
306.1,23.7912,0.646229,-0.519449
308.4,24.0107,0.642015,-0.528261
310.7,24.2337,0.639889,-0.53597
313,24.4555,0.639389,-0.542748
315.3,24.6762,0.645946,-0.552614
317.6,24.8968,0.649036,-0.558369
319.9,25.119,0.644982,-0.568193
322.2,25.3399,0.639027,-0.575307
324.5,25.5619,0.634932,-0.584108
326.8,25.7839,0.629072,-0.59085
329.1,26.0054,0.624491,-0.599068
331.4,26.2268,0.625749,-0.606104
333.7,26.4487,0.614958,-0.614047
336,26.6696,0.607914,-0.621377
338.3,26.8915,0.602694,-0.628521
340.6,27.1121,0.593167,-0.634927
342.9,27.3341,0.589374,-0.642651
345.2,27.5577,0.588242,-0.653443
347.5,27.7791,0.581994,-0.65901
349.8,28.0012,0.577192,-0.668368
352.1,28.224,0.576255,-0.67576
354.4,28.4463,0.571685,-0.685965
356.7,28.6687,0.578358,-0.693508
359,28.894,0.590375,-0.703598
361.3,29.1195,0.585845,-0.715135
363.6,29.3419,0.592459,-0.72578
365.9,29.5666,0.599676,-0.736255
368.2,29.7917,0.60531,-0.750599
370.5,30.0158,0.60693,-0.764746
372.8,30.239,0.616615,-0.778375
375.1,30.4626,0.608662,-0.796048
377.4,30.6873,0.621596,-0.812403
379.7,30.9102,0.623121,-0.829047
382,31.1335,0.61724,-0.849372
384.3,31.3589,0.61345,-0.872617
386.6,31.5833,0.610754,-0.894245
388.9,31.8091,0.603212,-0.915694
391.2,32.0321,0.59092,-0.940923
393.5,32.2585,0.560192,-0.965272
395.8,32.4808,0.53309,-0.989963
398.1,32.7074,0.505089,-1.01751
400.4,32.9323,0.465078,-1.04266
402.7,33.1564,0.423845,-1.06949
405,33.3802,0.389819,-1.09546
407.3,33.6043,0.339587,-1.11932
409.6,33.8293,0.306436,-1.14436
411.9,34.0546,0.279196,-1.16848
414.2,34.2787,0.250637,-1.19036
416.5,34.5032,0.237365,-1.21243
418.8,34.7261,0.218074,-1.22992
421.1,34.9529,0.193168,-1.24916
423.4,35.1789,0.189665,-1.26587
425.7,35.4035,0.179318,-1.27977
428,35.6307,0.176322,-1.29123
430.3,35.8562,0.178652,-1.30198
432.6,36.0818,0.181001,-1.31177
434.9,36.3084,0.182899,-1.32058
437.2,36.5348,0.180177,-1.32612
439.5,36.7609,0.181884,-1.33222
441.8,36.9892,0.195059,-1.34089
444.1,37.2159,0.196008,-1.34355
446.4,37.4434,0.196839,-1.34928
448.7,37.6712,0.195049,-1.35427
451,37.8977,0.200508,-1.35743
453.3,38.1259,0.194655,-1.36286
455.6,38.3526,0.189021,-1.36575
457.9,38.5793,0.174456,-1.37172
460.2,38.8077,0.159964,-1.37361
462.5,39.0347,0.145695,-1.37872
464.8,39.2629,0.132788,-1.38162
467.1,39.4896,0.109143,-1.38557
469.4,39.7158,0.102632,-1.39057
471.7,39.9455,0.0926182,-1.39343
474,40.1725,0.0815249,-1.39721
476.3,40.3992,0.0753989,-1.40059
478.6,40.6291,0.0665738,-1.40478
480.9,40.8577,0.0488925,-1.40752
483.2,41.0843,0.0408705,-1.40985
485.5,41.3139,0.0341712,-1.41379
487.8,41.5418,0.0265426,-1.41646
490.1,41.7699,0.0142454,-1.42049
492.4,41.9983,-0.00304266,-1.42221
494.7,42.2272,-0.0202353,-1.42564
497,42.4537,-0.0313316,-1.4283
499.3,42.6835,-0.055254,-1.431
501.6,42.9129,-0.0605176,-1.4329
503.9,43.1404,-0.0636085,-1.43694
506.2,43.3686,-0.069223,-1.43749
508.5,43.5987,-0.0691942,-1.4416
510.8,43.8279,-0.0822314,-1.44278
513.1,44.0564,-0.0816207,-1.44543
515.4,44.2863,-0.10104,-1.44705
517.7,44.5156,-0.115723,-1.45099
520,44.7445,-0.126639,-1.45232
522.3,44.9755,-0.142524,-1.45615
524.6,45.205,-0.147629,-1.45595
526.9,45.4354,-0.165279,-1.45957
529.2,45.6646,-0.167421,-1.46088
531.5,45.8936,-0.167909,-1.4645
533.8,46.1251,-0.167808,-1.46716
536.1,46.3559,-0.18164,-1.46943
538.4,46.5864,-0.18646,-1.47077
540.7,46.8158,-0.198251,-1.47341
543,47.0458,-0.191433,-1.47471
545.3,47.2767,-0.198737,-1.47803
547.6,47.5068,-0.205153,-1.48056
549.9,47.7356,-0.209041,-1.48197
552.2,47.9678,-0.212257,-1.48394
554.5,48.1962,-0.22236,-1.48658
556.8,48.4287,-0.231676,-1.49053
559.1,48.6592,-0.240528,-1.49255
561.4,48.8898,-0.246237,-1.49383
563.7,49.1208,-0.246109,-1.4958
566,49.3517,-0.251071,-1.49843
568.3,49.5828,-0.244627,-1.49973
570.6,49.8137,-0.246573,-1.50106
572.9,50.0443,-0.258273,-1.50502
575.2,50.2751,-0.264019,-1.50765
577.5,50.5068,-0.270759,-1.50897
579.8,50.7383,-0.273262,-1.5116
582.1,50.9695,-0.280906,-1.51226
584.4,51.2003,-0.292296,-1.5149
586.7,51.4321,-0.295152,-1.51552
589,51.6629,-0.306909,-1.51688
591.3,51.8948,-0.326152,-1.5195
593.6,52.1267,-0.324699,-1.52268
595.9,52.3598,-0.3272,-1.52442
598.2,52.5912,-0.321456,-1.52445
600.5,52.8228,-0.328186,-1.5261
602.8,53.0542,-0.328661,-1.52576
605.1,53.286,-0.326171,-1.5274
607.4,53.5172,-0.331512,-1.53038
609.7,53.7509,-0.339808,-1.53006
612,53.9823,-0.346672,-1.53031
614.3,54.2156,-0.347186,-1.53357
616.6,54.4475,-0.363007,-1.53356
618.9,54.6795,-0.379926,-1.53354
621.2,54.9121,-0.398202,-1.53488
623.5,55.1442,-0.404215,-1.53619
625.8,55.3775,-0.407442,-1.5362
628.1,55.6105,-0.41145,-1.53653
630.4,55.8434,-0.435359,-1.53785
632.7,56.0761,-0.439058,-1.53916
635,56.3079,-0.447413,-1.53982
637.3,56.5436,-0.458441,-1.53982
639.6,56.7778,-0.46386,-1.54048
641.9,57.0107,-0.478089,-1.54158
644.2,57.2426,-0.482388,-1.54206
646.5,57.4766,-0.492505,-1.54311
648.8,57.7102,-0.493425,-1.54189
651.1,57.9439,-0.499553,-1.54311
653.4,58.178,-0.505901,-1.54443
655.7,58.4099,-0.512436,-1.54574
658,58.6424,-0.527753,-1.54574
660.3,58.8788,-0.524777,-1.54706
662.6,59.1124,-0.515074,-1.54608
664.9,59.3453,-0.516304,-1.5474
667.2,59.5785,-0.508829,-1.54771
669.5,59.8116,-0.503597,-1.54872
671.8,60.0458,-0.501273,-1.54998
674.1,60.2788,-0.505381,-1.5487
676.4,60.5133,-0.508193,-1.54871
678.7,60.7464,-0.507833,-1.5497
681,60.9794,-0.484336,-1.54973
683.3,61.2152,-0.467174,-1.55234
685.6,61.4501,-0.452718,-1.55135
687.9,61.6844,-0.448824,-1.55102
690.2,61.9192,-0.457413,-1.55102
692.5,62.1535,-0.447959,-1.55071
694.8,62.3876,-0.456346,-1.55168
697.1,62.6226,-0.463693,-1.55334
699.4,62.8573,-0.464909,-1.55333
701.7,63.0909,-0.458259,-1.5533
704,63.3245,-0.450457,-1.55464
706.3,63.5598,-0.450869,-1.55464
708.6,63.7942,-0.443006,-1.55495
710.9,64.028,-0.436244,-1.55563
713.2,64.2635,-0.42254,-1.5553
715.5,64.4976,-0.409244,-1.55661
717.8,64.7334,-0.399202,-1.55596
720.1,64.9695,-0.381263,-1.55596
722.4,65.2041,-0.378412,-1.55653
724.7,65.4405,-0.378341,-1.55595
727,65.6758,-0.368504,-1.55733
729.3,65.9111,-0.357287,-1.55991
731.6,66.146,-0.342466,-1.55859
733.9,66.3812,-0.336103,-1.55859
736.2,66.6171,-0.318488,-1.55854
738.5,66.8522,-0.307533,-1.55925
740,67.0062,-0.31248,-1.55925