File: 01_Data/Fiber_Reinforced_Helmet_Shell/STA/N2/10K_min/Fiber_Reinforced_Helmet_Shell_STA_N2_10KData_240404_R2.csv
Temp./C,Time/min,DSC/(mW/mg),Mass loss/mg
60.0,0.0,0.618103,-0.00508622
62.3,0.260724,0.655821,-0.00396255
64.6,0.510391,0.688292,-0.00525062
66.9,0.755574,0.694893,-0.00667126
69.2,0.998838,0.673036,-0.00538337
71.5,1.24176,0.679597,-0.00478803
73.8,1.4816,0.681837,-0.00661531
76.1,1.71988,0.691267,-0.0072568
78.4,1.95676,0.716843,-0.0106574
80.7,2.19333,0.725488,-0.01065
83,2.42731,0.737832,-0.01196
85.3,2.65802,0.754345,-0.0132919
87.6,2.89117,0.764122,-0.01329
89.9,3.12321,0.781358,-0.0132815
92.2,3.35029,0.797941,-0.0146
94.5,3.5778,0.807513,-0.0161811
96.8,3.80485,0.81549,-0.0156103
99.1,4.03021,0.831518,-0.0182299
101.4,4.25408,0.844866,-0.0195091
103.7,4.47898,0.852287,-0.0191168
106,4.70238,0.85721,-0.0205304
108.3,4.92654,0.856522,-0.0206486
110.6,5.15028,0.859624,-0.0211958
112.9,5.37382,0.857917,-0.02349
115.2,5.59696,0.863532,-0.02415
117.5,5.8197,0.859681,-0.0254707
119.8,6.04258,0.868743,-0.02678
122.1,6.26692,0.85977,-0.02744
124.4,6.48726,0.863065,-0.02744
126.7,6.70928,0.859386,-0.0298483
129,6.93151,0.851576,-0.0293124
131.3,7.15318,0.857502,-0.0297481
133.6,7.37353,0.870431,-0.0303727
135.9,7.59321,0.870541,-0.03008
138.2,7.81503,0.860778,-0.03206
140.5,8.03626,0.862525,-0.0332743
142.8,8.25641,0.867416,-0.03206
145.1,8.47627,0.863773,-0.0333684
147.4,8.69638,0.863678,-0.03568
149.7,8.91596,0.867236,-0.0360098
152,9.1341,0.866172,-0.0373299
154.3,9.35301,0.865271,-0.0373186
156.6,9.5721,0.871561,-0.0374964
158.9,9.79124,0.88065,-0.0386397
161.2,10.0098,0.881952,-0.0400073
163.5,10.2295,0.880135,-0.03897
165.8,10.4476,0.878534,-0.03995
168.1,10.6663,0.880005,-0.0416
170.4,10.8852,0.892461,-0.0412418
172.7,11.1041,0.887022,-0.0425917
175,11.3235,0.899309,-0.043238
177.3,11.5413,0.914569,-0.0432584
179.6,11.7593,0.918618,-0.0458893
181.9,11.9781,0.92741,-0.04458
184.2,12.194,0.93408,-0.0465094
186.5,12.414,0.942951,-0.04655
188.8,12.6323,0.947195,-0.04655
191.1,12.8497,0.964708,-0.0498715
193.4,13.0681,0.978047,-0.0494855
195.7,13.2873,0.985111,-0.05083
198,13.5052,1.00385,-0.05083
200.3,13.7238,1.00822,-0.0524729
202.6,13.9425,1.02185,-0.0538
204.9,14.1615,1.03963,-0.0554301
207.2,14.3801,1.04986,-0.05643
209.5,14.5984,1.07391,-0.060419
211.8,14.8178,1.10367,-0.0603809
214.1,15.0373,1.1276,-0.0643403
216.4,15.2553,1.15907,-0.0666314
218.7,15.4736,1.21058,-0.0709339
221,15.6927,1.25726,-0.0735499
223.3,15.9125,1.30548,-0.0774697
225.6,16.1321,1.35965,-0.0814716
227.9,16.3515,1.44221,-0.0854256
230.2,16.5716,1.51116,-0.0893769
232.5,16.7913,1.57561,-0.0959781
234.8,17.0096,1.63464,-0.100502
237.1,17.231,1.6916,-0.107416
239.4,17.4486,1.73136,-0.115792
241.7,17.6677,1.73488,-0.123083
244,17.8883,1.70654,-0.131661
246.3,18.1072,1.63938,-0.140403
248.6,18.3259,1.57978,-0.150157
250.9,18.5438,1.50694,-0.159546
253.2,18.7621,1.42863,-0.171303
255.5,18.9791,1.36837,-0.179743
257.8,19.1985,1.31888,-0.192308
260.1,19.4176,1.26482,-0.202114
262.4,19.6366,1.24762,-0.213765
264.7,19.8558,1.21447,-0.228713
267,20.0745,1.19507,-0.242473
269.3,20.2931,1.18884,-0.258649
271.6,20.5123,1.13979,-0.275697
273.9,20.7307,1.05742,-0.294499
276.2,20.9485,0.93786,-0.313965
278.5,21.1659,0.816119,-0.334754
280.8,21.3838,0.686338,-0.355621
283.1,21.6019,0.595632,-0.377539
285.4,21.8215,0.54795,-0.398336
287.7,22.0409,0.540401,-0.417486
290,22.2617,0.56481,-0.434534
292.3,22.4799,0.58257,-0.447422
294.6,22.7001,0.599491,-0.458235
296.9,22.9202,0.604897,-0.470291
299.2,23.1401,0.630709,-0.47904
301.5,23.36,0.651122,-0.487495
303.8,23.5808,0.655476,-0.49572
306.1,23.8026,0.655987,-0.503468
308.4,24.0224,0.658483,-0.512215
310.7,24.2426,0.65587,-0.520128
313,24.4622,0.657631,-0.525794
315.3,24.6842,0.659236,-0.533863
317.6,24.9052,0.648795,-0.540801
319.9,25.1253,0.643676,-0.544403
322.2,25.3465,0.643366,-0.552498
324.5,25.5671,0.633681,-0.558162
326.8,25.788,0.618944,-0.565737
329.1,26.0103,0.621003,-0.573587
331.4,26.2321,0.620336,-0.581095
333.7,26.4512,0.606528,-0.588174
336,26.6747,0.601693,-0.596546
338.3,26.8968,0.600159,-0.604401
340.6,27.1186,0.590211,-0.613017
342.9,27.3409,0.589376,-0.623259
345.2,27.5628,0.575747,-0.630375
347.5,27.7822,0.572637,-0.638818
349.8,28.0056,0.567609,-0.646999
352.1,28.229,0.567513,-0.656155
354.4,28.4511,0.55773,-0.666665
356.7,28.6739,0.560279,-0.675059
359,28.8969,0.564605,-0.68581
361.3,29.1201,0.562791,-0.696799
363.6,29.3423,0.555989,-0.709142
365.9,29.5661,0.551146,-0.722597
368.2,29.7881,0.553773,-0.736157
370.5,30.0108,0.558671,-0.750576
372.8,30.2341,0.570297,-0.763539
375.1,30.4565,0.571745,-0.780734
377.4,30.6796,0.569752,-0.799195
379.7,30.9023,0.5788,-0.81616
382,31.1252,0.578694,-0.836711
384.3,31.3484,0.594255,-0.855896
386.6,31.5685,0.60412,-0.876215
388.9,31.7945,0.605115,-0.899586
391.2,32.0175,0.616259,-0.92098
393.5,32.2417,0.612071,-0.943682
395.8,32.4659,0.604904,-0.967469
398.1,32.6895,0.601015,-0.991104
400.4,32.9137,0.596169,-1.01325
402.7,33.1366,0.591089,-1.03608
405,33.3628,0.566862,-1.0596
407.3,33.5873,0.557507,-1.08115
409.6,33.812,0.545194,-1.10402
411.9,34.0381,0.54153,-1.12325
414.2,34.2615,0.520054,-1.14125
416.5,34.487,0.518694,-1.16021
418.8,34.7124,0.519667,-1.17685
421.1,34.938,0.518484,-1.19149
423.4,35.1615,0.52534,-1.20603
425.7,35.3877,0.536485,-1.22119
428,35.6137,0.536086,-1.23522
430.3,35.8387,0.548797,-1.24493
432.6,36.0634,0.556763,-1.25156
434.9,36.2902,0.559177,-1.25734
437.2,36.5173,0.570029,-1.26119
439.5,36.7434,0.561327,-1.26649
441.8,36.9705,0.574435,-1.26987
444.1,37.1954,0.575302,-1.27468
446.4,37.4248,0.580495,-1.27615
448.7,37.6503,0.58683,-1.28
451,37.879,0.586193,-1.2826
453.3,38.1066,0.59457,-1.28756
455.6,38.3342,0.594987,-1.29312
457.9,38.5624,0.598179,-1.29807
460.2,38.7909,0.590639,-1.30359
462.5,39.0186,0.583715,-1.30764
464.8,39.246,0.584602,-1.30918
467.1,39.4706,0.575901,-1.31367
469.4,39.701,0.554232,-1.31783
471.7,39.9292,0.554399,-1.32015
474,40.1572,0.548984,-1.32411
476.3,40.3842,0.545068,-1.32674
478.6,40.6141,0.541489,-1.32935
480.9,40.8412,0.536211,-1.33456
483.2,41.07,0.533472,-1.33727
485.5,41.2982,0.531442,-1.3399
487.8,41.5276,0.524087,-1.34378
490.1,41.7557,0.515461,-1.34517
492.4,41.9862,0.51296,-1.34783
494.7,42.2139,0.499304,-1.35043
497,42.4443,0.476978,-1.35186
499.3,42.6728,0.466169,-1.3557
501.6,42.9021,0.45176,-1.35968
503.9,43.1303,0.460936,-1.36201
506.2,43.359,0.449864,-1.36494
508.5,43.5864,0.452141,-1.36625
510.8,43.8175,0.463288,-1.36976
513.1,44.0479,0.455673,-1.37219
515.4,44.2776,0.455769,-1.37293
517.7,44.5078,0.455967,-1.37514
520,44.737,0.457158,-1.3778
522.3,44.9668,0.462357,-1.3791
524.6,45.1959,0.47375,-1.38172
526.9,45.4254,0.471524,-1.38438
529.2,45.6541,0.480346,-1.38502
531.5,45.8844,0.485429,-1.38766
533.8,46.1136,0.467046,-1.39029
536.1,46.344,0.474892,-1.39227
538.4,46.5745,0.468765,-1.39502
540.7,46.8033,0.463482,-1.39556
543,47.0333,0.459718,-1.39984
545.3,47.2628,0.444182,-1.40116
547.6,47.4927,0.441881,-1.40379
549.9,47.7221,0.431389,-1.40476
552.2,47.9533,0.423164,-1.40741
554.5,48.1817,0.413636,-1.41005
556.8,48.4123,0.403987,-1.41269
559.1,48.6445,0.38442,-1.414
561.4,48.8746,0.370476,-1.41532
563.7,49.105,0.356636,-1.41731
566,49.3361,0.343481,-1.42022
568.3,49.5669,0.331258,-1.42257
570.6,49.7977,0.336347,-1.42257
572.9,50.0281,0.320563,-1.42638
575.2,50.2594,0.315651,-1.42919
577.5,50.4903,0.308549,-1.43048
579.8,50.7218,0.30579,-1.43269
582.1,50.9512,0.288702,-1.4341
584.4,51.1818,0.288679,-1.43537
586.7,51.4119,0.283783,-1.43805
589,51.6424,0.263764,-1.43937
591.3,51.8741,0.259233,-1.44102
593.6,52.1048,0.238482,-1.44339
595.9,52.3365,0.229912,-1.44332
598.2,52.5668,0.217346,-1.44428
600.5,52.7976,0.209106,-1.44727
602.8,53.0299,0.199726,-1.44591
605.1,53.2586,0.186493,-1.44976
607.4,53.4906,0.176516,-1.44859
609.7,53.7212,0.172072,-1.44991
612,53.9535,0.160754,-1.4499
614.3,54.1851,0.163513,-1.4529
616.6,54.4169,0.160872,-1.45287
618.9,54.6489,0.15425,-1.4548
621.2,54.8821,0.146567,-1.45517
623.5,55.1142,0.142836,-1.45484
625.8,55.3477,0.123578,-1.45616
628.1,55.5804,0.102139,-1.45616
630.4,55.8126,0.0543169,-1.45747
632.7,56.0452,0.0129199,-1.4588
635,56.278,-0.017219,-1.45781
637.3,56.5117,-0.0529434,-1.45781
639.6,56.744,-0.0713251,-1.4588
641.9,56.9775,-0.0870777,-1.4588
644.2,57.2114,-0.104868,-1.46013
646.5,57.4444,-0.10849,-1.45981
648.8,57.6783,-0.127716,-1.4614
651.1,57.9128,-0.138277,-1.4611
653.4,58.1472,-0.143611,-1.46242
655.7,58.3818,-0.141155,-1.46374
658,58.6167,-0.144629,-1.46275
660.3,58.8513,-0.155249,-1.46393
662.6,59.086,-0.162396,-1.46472
664.9,59.3216,-0.166811,-1.46548
667.2,59.5555,-0.171025,-1.46472
669.5,59.7912,-0.166726,-1.46538
671.8,60.0262,-0.162417,-1.46538
674.1,60.2633,-0.161492,-1.46507
676.4,60.4971,-0.151489,-1.46704
678.7,60.7323,-0.144468,-1.46703
681,60.968,-0.143598,-1.46638
683.3,61.2031,-0.117555,-1.46769
685.6,61.438,-0.120535,-1.46738
687.9,61.6731,-0.110969,-1.46769
690.2,61.9053,-0.0943505,-1.46637
692.5,62.1416,-0.0777297,-1.46637
694.8,62.3761,-0.0702313,-1.46801
697.1,62.6107,-0.0731004,-1.46802
699.4,62.8444,-0.0891745,-1.46901
701.7,63.0782,-0.0861116,-1.46774
704,63.3127,-0.0875944,-1.469
706.3,63.5458,-0.0909656,-1.46999
708.6,63.7801,-0.116683,-1.46867
710.9,64.0136,-0.129355,-1.47
713.2,64.2472,-0.14666,-1.46934
715.5,64.4816,-0.148154,-1.47066
717.8,64.7153,-0.162811,-1.47099
720.1,64.949,-0.148687,-1.47099
722.4,65.1824,-0.148709,-1.47132
724.7,65.4156,-0.151612,-1.4712
727,65.6506,-0.171491,-1.47253
729.3,65.8827,-0.181661,-1.47263
731.6,66.1164,-0.170521,-1.47058
733.9,66.3524,-0.174098,-1.47197
736.2,66.5865,-0.185202,-1.47329
738.5,66.8207,-0.193025,-1.47329
740,66.973,-0.203181,-1.47393