File: 01_Data/Fiber_Reinforced_Helmet_Shell/STA/N2/10K_min/Fiber_Reinforced_Helmet_Shell_STA_N2_10KData_250429_R3.csv
Temp./C,Time/min,DSC/(mW/mg),Mass loss/mg
60.0,0.0,0.466216,-0.0190242
62.3,0.292477,0.511298,-0.019432
64.6,0.5766,0.527102,-0.0187319
66.9,0.850642,0.556282,-0.0209448
69.2,1.11648,0.577787,-0.0182492
71.5,1.37896,0.590263,-0.0186461
73.8,1.6353,0.618618,-0.0213114
76.1,1.88788,0.616552,-0.0202317
78.4,2.13571,0.634184,-0.0215152
80.7,2.38172,0.642189,-0.0229342
83,2.62297,0.651986,-0.0203386
85.3,2.86409,0.667759,-0.0233783
87.6,3.10074,0.674863,-0.0233804
89.9,3.33277,0.6925,-0.0220632
92.2,3.56809,0.709633,-0.0248018
94.5,3.7985,0.715857,-0.023489
96.8,4.028,0.72748,-0.0234884
99.1,4.25499,0.739261,-0.0248158
101.4,4.48125,0.747143,-0.024824
103.7,4.70694,0.752507,-0.0261388
106,4.93062,0.755995,-0.0261297
108.3,5.15551,0.756988,-0.0266098
110.6,5.37939,0.774249,-0.0273821
112.9,5.60253,0.772837,-0.02876
115.2,5.82562,0.774904,-0.0291117
117.5,6.048,0.788186,-0.028106
119.8,6.26991,0.80003,-0.0280923
122.1,6.49075,0.806921,-0.0306697
124.4,6.71197,0.801388,-0.0320534
126.7,6.93221,0.808683,-0.0308824
129,7.15193,0.801092,-0.0319126
131.3,7.37286,0.803926,-0.0319514
133.6,7.59274,0.797822,-0.0327712
135.9,7.81146,0.807549,-0.0338201
138.2,8.02918,0.806755,-0.0354603
140.5,8.24812,0.815636,-0.0354436
142.8,8.46661,0.809282,-0.0370596
145.1,8.68461,0.815124,-0.0370902
147.4,8.9011,0.820089,-0.0364401
149.7,9.11968,0.811729,-0.0373503
152,9.33371,0.815073,-0.0371001
154.3,9.55284,0.807987,-0.0410764
156.6,9.77024,0.814934,-0.0410089
158.9,9.98718,0.829649,-0.041249
161.2,10.2043,0.836949,-0.0410609
163.5,10.4199,0.846614,-0.0436907
165.8,10.6379,0.854766,-0.0444539
168.1,10.8529,0.865939,-0.04534
170.4,11.0717,0.889508,-0.047969
172.7,11.2876,0.903871,-0.0479695
175,11.5056,0.920462,-0.0478795
177.3,11.7224,0.92802,-0.0479097
179.6,11.9392,0.938097,-0.0492884
181.9,12.1548,0.950629,-0.0508426
184.2,12.3719,0.954058,-0.05236
186.5,12.5881,0.972314,-0.0536809
188.8,12.8045,0.980566,-0.0536796
191.1,13.0213,0.985545,-0.0549999
193.4,13.2383,1.00462,-0.05599
195.7,13.4544,1.0104,-0.05598
198,13.6705,1.02759,-0.057287
200.3,13.8879,1.04019,-0.05862
202.6,14.1051,1.05222,-0.0559207
204.9,14.3214,1.05839,-0.0599311
207.2,14.538,1.07173,-0.0612596
209.5,14.7537,1.08207,-0.0615802
211.8,14.9707,1.09204,-0.06257
214.1,15.1879,1.09702,-0.0610299
216.4,15.405,1.09364,-0.06521
218.7,15.6202,1.11904,-0.0691408
221,15.8373,1.11201,-0.0714599
223.3,16.054,1.12754,-0.0701463
225.6,16.2707,1.13597,-0.0727754
227.9,16.4879,1.14333,-0.0723794
230.2,16.7054,1.15249,-0.0733085
232.5,16.9212,1.1581,-0.0768158
234.8,17.1391,1.17169,-0.0795949
237.1,17.3569,1.17138,-0.0821874
239.4,17.5726,1.18126,-0.079849
241.7,17.7905,1.19217,-0.0808895
244,18.0081,1.20141,-0.0875953
246.3,18.2241,1.20547,-0.0925378
248.6,18.4429,1.22203,-0.0942794
250.9,18.6602,1.22084,-0.0975476
253.2,18.8775,1.23402,-0.101388
255.5,19.0932,1.24677,-0.106977
257.8,19.3118,1.25493,-0.110292
260.1,19.5308,1.25274,-0.117006
262.4,19.7484,1.25386,-0.122838
264.7,19.9663,1.2405,-0.129201
267,20.1832,1.23836,-0.135146
269.3,20.4015,1.22853,-0.141838
271.6,20.6187,1.20745,-0.152554
273.9,20.8373,1.1927,-0.162635
276.2,21.0545,1.17584,-0.168686
278.5,21.2727,1.1623,-0.182056
280.8,21.4906,1.15023,-0.19075
283.1,21.7081,1.13825,-0.201309
285.4,21.9264,1.12341,-0.213169
287.7,22.1441,1.10418,-0.228213
290,22.3638,1.07588,-0.242517
292.3,22.5807,1.05097,-0.262158
294.6,22.7993,0.944915,-0.283555
296.9,23.0169,0.840573,-0.303485
299.2,23.2355,0.810662,-0.329495
301.5,23.4541,0.863492,-0.353534
303.8,23.6749,0.926612,-0.374389
306.1,23.8942,0.982308,-0.39247
308.4,24.1139,1.02454,-0.40625
310.7,24.3339,1.04353,-0.418923
313,24.5517,1.06153,-0.429572
315.3,24.7736,1.08246,-0.441068
317.6,24.9931,1.09088,-0.449607
319.9,25.2133,1.11146,-0.462987
322.2,25.4346,1.12669,-0.472775
324.5,25.6536,1.13785,-0.483928
326.8,25.8738,1.15001,-0.49239
329.1,26.0946,1.1579,-0.505071
331.4,26.3162,1.15821,-0.511522
333.7,26.5363,1.15579,-0.524844
336,26.7576,1.15749,-0.533459
338.3,26.9786,1.16583,-0.540745
340.6,27.1991,1.16377,-0.54792
342.9,27.421,1.17121,-0.562227
345.2,27.6414,1.16322,-0.570143
347.5,27.8626,1.16348,-0.58184
349.8,28.0832,1.17251,-0.587333
352.1,28.3041,1.15843,-0.599448
354.4,28.5258,1.16775,-0.612135
356.7,28.7486,1.16734,-0.618021
359,28.9693,1.16123,-0.628383
361.3,29.1902,1.17194,-0.638159
363.6,29.4127,1.17722,-0.647943
365.9,29.635,1.18403,-0.660285
368.2,29.8568,1.18143,-0.669336
370.5,30.0791,1.18256,-0.681719
372.8,30.3027,1.19156,-0.694377
375.1,30.525,1.2056,-0.705335
377.4,30.7475,1.21072,-0.720292
379.7,30.9705,1.22669,-0.729496
382,31.192,1.23959,-0.747316
384.3,31.4163,1.24566,-0.762897
386.6,31.6387,1.26197,-0.779052
388.9,31.8609,1.28122,-0.794515
391.2,32.0841,1.29814,-0.811734
393.5,32.3075,1.31779,-0.831229
395.8,32.5303,1.32606,-0.851665
398.1,32.7541,1.35062,-0.869378
400.4,32.9778,1.34755,-0.89346
402.7,33.2011,1.35736,-0.914621
405,33.425,1.36809,-0.93512
407.3,33.6485,1.35763,-0.960895
409.6,33.8722,1.35413,-0.983597
411.9,34.0963,1.34547,-1.00795
414.2,34.3198,1.32258,-1.03484
416.5,34.5436,1.29439,-1.05652
418.8,34.7674,1.26281,-1.08128
421.1,34.9906,1.23067,-1.10198
423.4,35.2147,1.20312,-1.12683
425.7,35.4387,1.16422,-1.14789
428,35.6622,1.13017,-1.16545
430.3,35.886,1.08562,-1.18274
432.6,36.1108,1.05945,-1.20002
434.9,36.3344,1.01482,-1.21614
437.2,36.5596,0.982442,-1.22507
439.5,36.7832,0.95092,-1.24327
441.8,37.008,0.923045,-1.25188
444.1,37.2323,0.888967,-1.26239
446.4,37.4545,0.867009,-1.26944
448.7,37.6814,0.855282,-1.27973
451,37.9067,0.828062,-1.28438
453.3,38.1313,0.819505,-1.29101
455.6,38.3569,0.809394,-1.30212
457.9,38.5814,0.796704,-1.30355
460.2,38.8074,0.782985,-1.30995
462.5,39.0349,0.778491,-1.3138
464.8,39.2613,0.77056,-1.32093
467.1,39.4858,0.754817,-1.32378
469.4,39.7124,0.753268,-1.32742
471.7,39.9397,0.747009,-1.33155
474,40.1659,0.739973,-1.33479
476.3,40.3916,0.739802,-1.33704
478.6,40.6168,0.740083,-1.34031
480.9,40.8425,0.733119,-1.34428
483.2,41.0702,0.726157,-1.34554
485.5,41.2957,0.723881,-1.35274
487.8,41.5226,0.714034,-1.35099
490.1,41.7493,0.714379,-1.35746
492.4,41.9757,0.715312,-1.35877
494.7,42.201,0.713362,-1.36273
497,42.4292,0.704534,-1.36415
499.3,42.6561,0.709135,-1.36583
501.6,42.8833,0.688808,-1.37107
503.9,43.1098,0.69132,-1.36933
506.2,43.3372,0.683163,-1.37845
508.5,43.5646,0.685106,-1.37915
510.8,43.7914,0.683507,-1.37263
513.1,44.0199,0.666372,-1.38337
515.4,44.2476,0.667907,-1.37941
517.7,44.4755,0.666846,-1.38083
520,44.7031,0.659085,-1.38611
522.3,44.9305,0.666566,-1.38653
524.6,45.1584,0.66597,-1.38842
526.9,45.3876,0.652164,-1.39021
529.2,45.6148,0.650431,-1.39149
531.5,45.8429,0.63258,-1.39314
533.8,46.0716,0.631609,-1.39289
536.1,46.2989,0.622049,-1.40111
538.4,46.5267,0.628697,-1.39654
540.7,46.7548,0.623441,-1.39644
543,46.9825,0.606892,-1.40165
545.3,47.2114,0.609747,-1.40171
547.6,47.4392,0.604223,-1.40576
549.9,47.6671,0.609776,-1.40979
552.2,47.8967,0.606988,-1.411
554.5,48.1243,0.605222,-1.40972
556.8,48.3513,0.604938,-1.41317
559.1,48.5818,0.600901,-1.41521
561.4,48.8103,0.601167,-1.41114
563.7,49.0395,0.612078,-1.41879
566,49.2683,0.610923,-1.41621
568.3,49.497,0.617721,-1.41891
570.6,49.726,0.610392,-1.42091
572.9,49.9535,0.601486,-1.42229
575.2,50.1846,0.604784,-1.42256
577.5,50.4141,0.585674,-1.4252
579.8,50.6436,0.590507,-1.42783
582.1,50.8726,0.580735,-1.43091
584.4,51.1033,0.584612,-1.42794
586.7,51.333,0.577255,-1.42874
589,51.5617,0.562455,-1.43275
591.3,51.7902,0.557971,-1.43311
593.6,52.0203,0.54603,-1.43252
595.9,52.25,0.531688,-1.43408
598.2,52.4795,0.519594,-1.43508
600.5,52.7088,0.512448,-1.43612
602.8,52.9382,0.509324,-1.43616
605.1,53.1675,0.505678,-1.43431
607.4,53.3973,0.481239,-1.43843
609.7,53.627,0.483986,-1.43947
612,53.8564,0.465069,-1.43881
614.3,54.0861,0.448091,-1.44276
616.6,54.3161,0.455002,-1.44145
618.9,54.5459,0.438406,-1.44276
621.2,54.7753,0.419154,-1.44013
623.5,55.005,0.418405,-1.44152
625.8,55.2344,0.409785,-1.4464
628.1,55.4648,0.405219,-1.44639
630.4,55.6943,0.382576,-1.4424
632.7,55.9253,0.393635,-1.44241
635,56.1558,0.372311,-1.44111
637.3,56.386,0.38124,-1.44673
639.6,56.6162,0.370248,-1.44539
641.9,56.8459,0.348596,-1.44736
644.2,57.076,0.328403,-1.44331
646.5,57.3057,0.318618,-1.44594
648.8,57.5343,0.30338,-1.44462
651.1,57.7661,0.288233,-1.44713
653.4,57.9958,0.261462,-1.44737
655.7,58.2258,0.244258,-1.45023
658,58.4557,0.233774,-1.44873
660.3,58.686,0.2174,-1.44986
662.6,58.9158,0.198039,-1.44627
664.9,59.1471,0.178828,-1.4476
667.2,59.3773,0.168429,-1.44759
669.5,59.6068,0.137541,-1.45186
671.8,59.8373,0.122507,-1.44792
674.1,60.0664,0.101415,-1.44994
676.4,60.2969,0.079355,-1.45086
678.7,60.5273,0.0477035,-1.44807
681,60.7576,0.020375,-1.45338
683.3,60.9896,-0.00455849,-1.45176
685.6,61.2196,-0.0190371,-1.45307
687.9,61.4507,-0.042458,-1.45209
690.2,61.6823,-0.0736597,-1.4531
692.5,61.914,-0.0881558,-1.45176
694.8,62.1439,-0.115069,-1.452
697.1,62.3766,-0.134219,-1.45342
699.4,62.609,-0.155382,-1.45309
701.7,62.8392,-0.175665,-1.45176
704,63.0706,-0.185749,-1.45318
706.3,63.3019,-0.208329,-1.45319
708.6,63.533,-0.228712,-1.45608
710.9,63.7637,-0.243691,-1.45187
713.2,63.9953,-0.259965,-1.45616
715.5,64.226,-0.268736,-1.45485
717.8,64.4589,-0.288761,-1.45554
720.1,64.6905,-0.299032,-1.45439
722.4,64.9203,-0.31589,-1.45704
724.7,65.1544,-0.321883,-1.45156
727,65.3858,-0.344697,-1.45226
729.3,65.6169,-0.358365,-1.45635
731.6,65.8478,-0.362391,-1.45308
733.9,66.0784,-0.374871,-1.45538
736.2,66.312,-0.384492,-1.45802
738.5,66.5427,-0.387435,-1.45372
740,66.6946,-0.399978,-1.45526