File: 01_Data/Fiber_Reinforced_Helmet_Shell/STA/N2/10K_min/Fiber_Reinforced_Helmet_Shell_STA_N2_10KData_250430_R4.csv
Temp./C,Time/min,DSC/(mW/mg),Mass loss/mg
60.0,0.0,0.492027,-0.0206431
62.3,0.292133,0.518408,-0.0209108
64.6,0.577216,0.540068,-0.0221176
66.9,0.85026,0.568985,-0.0207476
69.2,1.11766,0.582334,-0.0198971
71.5,1.37927,0.592855,-0.0212193
73.8,1.63582,0.604256,-0.0225562
76.1,1.88686,0.616342,-0.0213456
78.4,2.13482,0.628349,-0.0234207
80.7,2.38046,0.642184,-0.0239302
83,2.62335,0.653906,-0.0225183
85.3,2.86346,0.654131,-0.0252537
87.6,3.09977,0.660659,-0.0239312
89.9,3.33499,0.66843,-0.0238808
92.2,3.56727,0.690014,-0.02558
94.5,3.79833,0.695143,-0.0245471
96.8,4.02678,0.703635,-0.0251849
99.1,4.25389,0.708005,-0.0264626
101.4,4.48093,0.71525,-0.0251398
103.7,4.70678,0.730266,-0.0264575
106,4.93018,0.738479,-0.0276951
108.3,5.15444,0.74421,-0.02646
110.6,5.37783,0.74215,-0.0290896
112.9,5.60004,0.7458,-0.0291082
115.2,5.82342,0.748374,-0.0293732
117.5,6.044,0.751245,-0.0298773
119.8,6.26641,0.75136,-0.0325408
122.1,6.48842,0.764912,-0.02986
124.4,6.70693,0.764778,-0.0282093
126.7,6.93004,0.766738,-0.0301979
129,7.15123,0.762827,-0.0301906
131.3,7.37071,0.762392,-0.0315228
133.6,7.59016,0.768315,-0.0328194
135.9,7.80931,0.771692,-0.0324999
138.2,8.02741,0.773481,-0.0340593
140.5,8.24622,0.766912,-0.0349897
142.8,8.4636,0.771769,-0.03425
145.1,8.6818,0.772308,-0.0356831
147.4,8.89978,0.775283,-0.0369986
149.7,9.11656,0.7717,-0.0421592
152,9.3346,0.775205,-0.0389572
154.3,9.55173,0.769297,-0.0386403
156.6,9.76823,0.767403,-0.0415243
158.9,9.98609,0.767874,-0.0401799
161.2,10.2023,0.7899,-0.0415588
163.5,10.4201,0.79156,-0.04051
165.8,10.6368,0.789087,-0.0444701
168.1,10.8545,0.804574,-0.0470999
170.4,11.0714,0.809397,-0.0470999
172.7,11.2882,0.825384,-0.04809
175,11.5049,0.840884,-0.04677
177.3,11.7214,0.851084,-0.0479824
179.6,11.9382,0.864403,-0.04841
181.9,12.1556,0.878776,-0.0496771
184.2,12.372,0.885473,-0.05039
186.5,12.589,0.885247,-0.0503909
188.8,12.8056,0.892977,-0.0530203
191.1,13.0217,0.900235,-0.0517102
193.4,13.2377,0.90931,-0.0540083
195.7,13.4546,0.927573,-0.0540499
198,13.6711,0.930758,-0.0556972
200.3,13.8864,0.948017,-0.0579931
202.6,14.1033,0.952629,-0.05796
204.9,14.3194,0.952611,-0.0573442
207.2,14.5373,0.975574,-0.0592816
209.5,14.7532,0.980115,-0.0602752
211.8,14.9703,0.990804,-0.0618131
214.1,15.1872,1.00101,-0.06302
216.4,15.4034,1.00071,-0.0643296
218.7,15.62,1.01137,-0.0672999
221,15.8365,1.00627,-0.06829
223.3,16.0538,1.00814,-0.0696015
225.6,16.2703,1.00407,-0.0698927
227.9,16.4867,1.00852,-0.0738907
230.2,16.7052,1.00679,-0.0739042
232.5,16.922,1.00677,-0.0765064
234.8,17.1392,1.01584,-0.0758605
237.1,17.3569,1.01729,-0.0781708
239.4,17.5722,1.03069,-0.0814533
241.7,17.7898,1.03223,-0.0837598
244,18.0077,1.04031,-0.0864151
246.3,18.225,1.05867,-0.0903516
248.6,18.4431,1.07273,-0.0943138
250.9,18.6598,1.09413,-0.0979244
253.2,18.8766,1.09365,-0.101872
255.5,19.0946,1.104,-0.106758
257.8,19.3134,1.11754,-0.110625
260.1,19.531,1.10614,-0.11539
262.4,19.7477,1.09675,-0.122413
264.7,19.9658,1.09002,-0.128905
267,20.1844,1.07381,-0.134572
269.3,20.4006,1.06734,-0.142065
271.6,20.6186,1.06193,-0.14977
273.9,20.8381,1.0486,-0.160511
276.2,21.0548,1.03848,-0.16908
278.5,21.273,1.01813,-0.177919
280.8,21.4903,1.00303,-0.188129
283.1,21.7094,0.994107,-0.200232
285.4,21.9291,0.977446,-0.212136
287.7,22.1497,0.958356,-0.225772
290,22.3673,0.938665,-0.242461
292.3,22.5878,0.884463,-0.260247
294.6,22.8038,0.75161,-0.280802
296.9,23.022,0.661039,-0.305327
299.2,23.2398,0.633537,-0.329015
301.5,23.4596,0.685176,-0.352871
303.8,23.6786,0.754066,-0.3736
306.1,23.8988,0.809013,-0.391342
308.4,24.1184,0.844604,-0.406532
310.7,24.3374,0.864311,-0.417881
313,24.5583,0.885879,-0.429589
315.3,24.7782,0.899895,-0.441234
317.6,24.9975,0.915549,-0.451579
319.9,25.2189,0.923756,-0.461845
322.2,25.4371,0.933524,-0.472881
324.5,25.6574,0.947907,-0.481418
326.8,25.8786,0.958026,-0.492837
329.1,26.099,0.968364,-0.503361
331.4,26.3199,0.970972,-0.513685
333.7,26.5405,0.978948,-0.522901
336,26.7622,0.973125,-0.534182
338.3,26.9832,0.973625,-0.540681
340.6,27.2043,0.978967,-0.55279
342.9,27.4244,0.971857,-0.564052
345.2,27.6462,0.97011,-0.57442
347.5,27.867,0.966175,-0.583259
349.8,28.0861,0.964749,-0.59301
352.1,28.3081,0.96518,-0.60247
354.4,28.5293,0.958956,-0.612765
356.7,28.753,0.954594,-0.623548
359,28.9743,0.954953,-0.631296
361.3,29.1955,0.963518,-0.638112
363.6,29.4177,0.960993,-0.651137
365.9,29.639,0.973668,-0.665361
368.2,29.8619,0.973673,-0.673756
370.5,30.0845,0.98052,-0.685778
372.8,30.3073,0.986999,-0.697252
375.1,30.5297,0.981872,-0.707247
377.4,30.7505,0.99361,-0.719745
379.7,30.9755,1.00061,-0.736633
382,31.1981,1.00761,-0.750466
384.3,31.4215,1.02084,-0.76258
386.6,31.6444,1.03065,-0.779166
388.9,31.8668,1.04747,-0.797193
391.2,32.0909,1.06279,-0.816178
393.5,32.3139,1.07779,-0.833392
395.8,32.5372,1.09784,-0.852778
398.1,32.7602,1.11257,-0.875139
400.4,32.9851,1.12927,-0.896278
402.7,33.2084,1.13434,-0.919064
405,33.4329,1.13703,-0.942833
407.3,33.6563,1.1346,-0.96761
409.6,33.8807,1.13251,-0.990903
411.9,34.1043,1.12499,-1.01439
414.2,34.3274,1.0962,-1.03901
416.5,34.5522,1.07035,-1.06331
418.8,34.7764,1.03921,-1.08935
421.1,35.0003,1.00446,-1.11065
423.4,35.2243,0.957051,-1.13286
425.7,35.4471,0.922558,-1.15392
428,35.6713,0.879963,-1.17087
430.3,35.8946,0.837238,-1.18773
432.6,36.1195,0.794138,-1.20588
434.9,36.345,0.754011,-1.22196
437.2,36.5687,0.723615,-1.23662
439.5,36.7934,0.691107,-1.24807
441.8,37.017,0.651925,-1.26029
444.1,37.243,0.628632,-1.26815
446.4,37.4669,0.609028,-1.27564
448.7,37.6914,0.581854,-1.2859
451,37.9168,0.556264,-1.29407
453.3,38.1443,0.538404,-1.297
455.6,38.3697,0.525791,-1.30283
457.9,38.5946,0.518875,-1.31102
460.2,38.8192,0.509107,-1.31538
462.5,39.0449,0.501445,-1.32134
464.8,39.2705,0.489829,-1.32473
467.1,39.4968,0.486857,-1.33057
469.4,39.7225,0.486532,-1.3346
471.7,39.9489,0.468118,-1.33584
474,40.1762,0.463103,-1.34142
476.3,40.4025,0.470514,-1.34515
478.6,40.6282,0.450579,-1.34802
480.9,40.8558,0.444429,-1.35047
483.2,41.0822,0.437006,-1.35165
485.5,41.3094,0.431719,-1.35835
487.8,41.5361,0.429616,-1.36242
490.1,41.7629,0.434129,-1.36643
492.4,41.9888,0.433136,-1.36781
494.7,42.2171,0.425755,-1.3691
497,42.4456,0.418028,-1.37102
499.3,42.6725,0.417593,-1.37328
501.6,42.8999,0.40204,-1.37575
503.9,43.1278,0.404281,-1.37635
506.2,43.3552,0.395825,-1.37898
508.5,43.5801,0.382084,-1.38162
510.8,43.809,0.37933,-1.38556
513.1,44.0371,0.368666,-1.38739
515.4,44.2638,0.366192,-1.38925
517.7,44.4909,0.364815,-1.39084
520,44.7182,0.359549,-1.38952
522.3,44.9462,0.348287,-1.39217
524.6,45.1752,0.336219,-1.39823
526.9,45.4024,0.340719,-1.39808
529.2,45.6314,0.334888,-1.39944
531.5,45.8602,0.325501,-1.40071
533.8,46.0881,0.32159,-1.40006
536.1,46.317,0.321283,-1.40337
538.4,46.5451,0.319372,-1.40572
540.7,46.774,0.310695,-1.4059
543,47.0022,0.307513,-1.40862
545.3,47.2314,0.302941,-1.41275
547.6,47.4608,0.307675,-1.4116
549.9,47.6885,0.305551,-1.41488
552.2,47.9184,0.307496,-1.41587
554.5,48.1473,0.301931,-1.41718
556.8,48.3761,0.29582,-1.41751
559.1,48.6044,0.290963,-1.41983
561.4,48.8331,0.296865,-1.42145
563.7,49.0625,0.287133,-1.42274
566,49.2911,0.285168,-1.4241
568.3,49.5201,0.280532,-1.42541
570.6,49.7483,0.284963,-1.42769
572.9,49.9773,0.283168,-1.43032
575.2,50.2059,0.281419,-1.43039
577.5,50.4356,0.277467,-1.43239
579.8,50.6641,0.283885,-1.43162
582.1,50.8937,0.278078,-1.43289
584.4,51.1236,0.273935,-1.43497
586.7,51.3533,0.278888,-1.43761
589,51.5819,0.268451,-1.43796
591.3,51.8125,0.263336,-1.43925
593.6,52.0418,0.261332,-1.44189
595.9,52.2717,0.255637,-1.44288
598.2,52.5015,0.245139,-1.44022
600.5,52.7321,0.229749,-1.44155
602.8,52.9619,0.218264,-1.44255
605.1,53.1905,0.207621,-1.44518
607.4,53.4198,0.200312,-1.44781
609.7,53.651,0.194184,-1.44529
612,53.8813,0.191969,-1.44464
614.3,54.1118,0.183267,-1.45023
616.6,54.3394,0.168399,-1.4476
618.9,54.5721,0.17158,-1.44889
621.2,54.802,0.167705,-1.44891
623.5,55.0316,0.159057,-1.44858
625.8,55.2613,0.156233,-1.4499
628.1,55.492,0.156952,-1.4499
630.4,55.7207,0.160506,-1.44946
632.7,55.9509,0.151835,-1.44934
635,56.1811,0.160339,-1.45247
637.3,56.4113,0.143674,-1.45242
639.6,56.6416,0.145202,-1.45143
641.9,56.8723,0.129946,-1.45243
644.2,57.1021,0.113416,-1.45506
646.5,57.3333,0.0971995,-1.45508
648.8,57.5634,0.0876558,-1.45366
651.1,57.7938,0.0697022,-1.45242
653.4,58.0246,0.0592421,-1.45584
655.7,58.255,0.0493686,-1.45469
658,58.4852,0.0419278,-1.4551
660.3,58.7149,0.0344528,-1.4544
662.6,58.9448,0.0227187,-1.45572
664.9,59.1764,0.00559118,-1.45572
667.2,59.4043,-0.0172349,-1.45835
669.5,59.6373,-0.0233156,-1.45649
671.8,59.8664,-0.0360445,-1.4551
674.1,60.0977,-0.0457987,-1.4555
676.4,60.3281,-0.0575592,-1.45682
678.7,60.5579,-0.0742051,-1.45814
681,60.7879,-0.0859084,-1.45912
683.3,61.0181,-0.0993523,-1.45648
685.6,61.249,-0.109006,-1.45713
687.9,61.4799,-0.115164,-1.45779
690.2,61.7123,-0.125426,-1.45759
692.5,61.943,-0.137474,-1.4565
694.8,62.1737,-0.145042,-1.45912
697.1,62.4051,-0.154725,-1.46043
699.4,62.6358,-0.167697,-1.45774
701.7,62.8665,-0.185132,-1.4578
704,63.098,-0.195545,-1.46043
706.3,63.3278,-0.208442,-1.46044
708.6,63.5585,-0.21281,-1.46044
710.9,63.7916,-0.231137,-1.46176
713.2,64.023,-0.214733,-1.46106
715.5,64.2546,-0.217688,-1.46076
717.8,64.4869,-0.23833,-1.46044
720.1,64.718,-0.245764,-1.46044
722.4,64.9489,-0.249898,-1.46235
724.7,65.1805,-0.259251,-1.46275
727,65.4103,-0.253806,-1.46309
729.3,65.6433,-0.257329,-1.4636
731.6,65.8752,-0.247669,-1.46406
733.9,66.1076,-0.245487,-1.46439
736.2,66.3393,-0.239416,-1.46638
738.5,66.5719,-0.239353,-1.46373
740,66.7216,-0.243072,-1.46505