File: 01_Data/PEVA/FTIR/IS/PEVA_0.18_IS_T_240809_R4.dpt
7497.33,0.05042
7474.19,0.03675
7451.04,0.03037
7427.9,0.01384
7404.75,0.03151
7381.6,0.03567
7358.46,0.03001
7335.31,0.03330
7312.17,0.05298
7289.02,0.03454
7265.87,0.03350
7242.73,0.02117
7219.58,0.03033
7196.44,0.04075
7173.29,0.03979
7150.15,0.02874
7127,0.04219
7103.85,0.02616
7080.71,0.02686
7057.56,0.03182
7034.42,0.03632
7011.27,0.03993
6988.12,0.03493
6964.98,0.03191
6941.83,0.02246
6918.69,0.02828
6895.54,0.03487
6872.39,0.03412
6849.25,0.03287
6826.1,0.03570
6802.96,0.03325
6779.81,0.03476
6756.67,0.03402
6733.52,0.03565
6710.37,0.03059
6687.23,0.03554
6664.08,0.03355
6640.94,0.03409
6617.79,0.03231
6594.64,0.02919
6571.5,0.03561
6548.35,0.02740
6525.21,0.03952
6502.06,0.03492
6478.92,0.03432
6455.77,0.02561
6432.62,0.02996
6409.48,0.03575
6386.33,0.03135
6363.19,0.03393
6340.04,0.02695
6316.89,0.03092
6293.75,0.02943
6270.6,0.03070
6247.46,0.03461
6224.31,0.03319
6201.16,0.02997
6178.02,0.03117
6154.87,0.02861
6131.73,0.03361
6108.58,0.02971
6085.44,0.03363
6062.29,0.02952
6039.14,0.03050
6016,0.03078
5992.85,0.03250
5969.71,0.03068
5946.56,0.02860
5923.41,0.03198
5900.27,0.02791
5877.12,0.02833
5853.98,0.02768
5830.83,0.03147
5807.68,0.02920
5784.54,0.02998
5761.39,0.02957
5738.25,0.02897
5715.1,0.02994
5691.96,0.03211
5668.81,0.03012
5645.66,0.03066
5622.52,0.03105
5599.37,0.02944
5576.23,0.03196
5553.08,0.03110
5529.93,0.03086
5506.79,0.03287
5483.64,0.02883
5460.5,0.03070
5437.35,0.03162
5414.21,0.02847
5391.06,0.03220
5367.91,0.03116
5344.77,0.03025
5321.62,0.02884
5298.48,0.02950
5275.33,0.03028
5252.18,0.03029
5229.04,0.02974
5205.89,0.03175
5182.75,0.02945
5159.6,0.03078
5136.45,0.03216
5113.31,0.03015
5090.16,0.03073
5067.02,0.03119
5043.87,0.03042
5020.73,0.03042
4997.58,0.03038
4974.43,0.03012
4951.29,0.03086
4928.14,0.03044
4905,0.03044
4881.85,0.02993
4858.7,0.02973
4835.56,0.03029
4812.41,0.02987
4789.27,0.03091
4766.12,0.03019
4742.97,0.03028
4719.83,0.02922
4696.68,0.03073
4673.54,0.03067
4650.39,0.02986
4627.25,0.03002
4604.1,0.02991
4580.95,0.03083
4557.81,0.03009
4534.66,0.03047
4511.52,0.02879
4488.37,0.03004
4465.22,0.02982
4442.08,0.03091
4418.93,0.02985
4395.79,0.02970
4372.64,0.02953
4349.49,0.02943
4326.35,0.02918
4303.2,0.02991
4280.06,0.03003
4256.91,0.02976
4233.77,0.03073
4210.62,0.02925
4187.47,0.03075
4164.33,0.02968
4141.18,0.03006
4118.04,0.03005
4094.89,0.02982
4071.74,0.03026
4048.6,0.03010
4025.45,0.02976
4002.31,0.02918
3979.16,0.03004
3956.02,0.02947
3932.87,0.02986
3909.72,0.02937
3886.58,0.02972
3863.43,0.03072
3840.29,0.03044
3817.14,0.03001
3793.99,0.02956
3770.85,0.02925
3747.7,0.03020
3724.56,0.02964
3701.41,0.02932
3678.26,0.03025
3655.12,0.02782
3631.97,0.02760
3608.83,0.02762
3585.68,0.02786
3562.54,0.02716
3539.39,0.02635
3516.24,0.02674
3493.1,0.02627
3469.95,0.02661
3446.81,0.02676
3423.66,0.02628
3400.51,0.02624
3377.37,0.02551
3354.22,0.02576
3331.08,0.02568
3307.93,0.02598
3284.78,0.02601
3261.64,0.02582
3238.49,0.02608
3215.35,0.02654
3192.2,0.02662
3169.06,0.02711
3145.91,0.02649
3122.76,0.02634
3099.62,0.02680
3076.47,0.02706
3053.33,0.02666
3030.18,0.02649
3007.03,0.02652
2983.89,0.02580
2960.74,0.02563
2937.6,0.02562
2914.45,0.02637
2891.31,0.02598
2868.16,0.02617
2845.01,0.02676
2821.87,0.02682
2798.72,0.02691
2775.58,0.02717
2752.43,0.02734
2729.28,0.02676
2706.14,0.02721
2682.99,0.02711
2659.85,0.02701
2636.7,0.02698
2613.55,0.02684
2590.41,0.02694
2567.26,0.02699
2544.12,0.02658
2520.97,0.02639
2497.83,0.02731
2474.68,0.02653
2451.53,0.02647
2428.39,0.02623
2405.24,0.02670
2382.1,0.02671
2358.95,0.02701
2335.8,0.02630
2312.66,0.02645
2289.51,0.02615
2266.37,0.02622
2243.22,0.02619
2220.07,0.02605
2196.93,0.02609
2173.78,0.02572
2150.64,0.02567
2127.49,0.02572
2104.35,0.02600
2081.2,0.02535
2058.05,0.02576
2034.91,0.02552
2011.76,0.02593
1988.62,0.02525
1965.47,0.02546
1942.32,0.02532
1919.18,0.02543
1896.03,0.02485
1872.89,0.02453
1849.74,0.02489
1826.6,0.02437
1803.45,0.02411
1780.3,0.02304
1757.16,0.02185
1734.01,0.02369
1710.87,0.02422
1687.72,0.02255
1664.57,0.02212
1641.43,0.02176
1618.28,0.02268
1595.14,0.02225
1571.99,0.02150
1548.84,0.02190
1525.7,0.02255
1502.55,0.02214
1479.41,0.02134
1456.26,0.02157
1433.12,0.02133
1409.97,0.02107
1386.82,0.02067
1363.68,0.02080
1340.53,0.02086
1317.39,0.01948
1294.24,0.01995
1271.09,0.02195
1247.95,0.02286
1224.8,0.02245
1201.66,0.02105
1178.51,0.02044
1155.36,0.02001
1132.22,0.02040
1109.07,0.02219
1085.93,0.02224
1062.78,0.02385
1039.64,0.02396
1016.49,0.02308
993.344,0.02456
970.198,0.02355
947.052,0.02302
923.906,0.02231
900.76,0.02216
877.614,0.02275
854.468,0.02225
831.323,0.02141
808.177,0.02101
785.031,0.02062
761.885,0.02047
738.739,0.02119
715.593,0.01953
692.447,0.02019
669.301,0.01903
646.156,0.01931
623.01,0.01975
599.864,0.01920