File: 01_Data/PEVA/FTIR/IS/PEVA_0.10_IS_T_240808_R9.dpt
7496.93,0.03542
7473.78,0.03562
7450.64,0.02992
7427.49,0.03367
7404.35,0.02562
7381.2,0.01416
7358.06,0.04332
7334.91,0.02889
7311.77,0.03402
7288.62,0.04439
7265.48,0.03273
7242.34,0.03258
7219.19,0.03392
7196.05,0.04533
7172.9,0.04153
7149.76,0.02924
7126.61,0.03810
7103.47,0.02736
7080.32,0.03783
7057.18,0.03450
7034.03,0.02992
7010.89,0.03121
6987.74,0.04313
6964.6,0.03549
6941.46,0.02704
6918.31,0.02835
6895.17,0.03508
6872.02,0.03447
6848.88,0.02547
6825.73,0.03229
6802.59,0.03611
6779.44,0.02996
6756.3,0.03484
6733.15,0.03655
6710.01,0.03323
6686.86,0.03357
6663.72,0.02745
6640.58,0.03479
6617.43,0.02165
6594.29,0.03180
6571.14,0.03303
6548,0.02693
6524.85,0.02896
6501.71,0.02824
6478.56,0.03075
6455.42,0.03493
6432.27,0.02858
6409.13,0.03474
6385.98,0.02679
6362.84,0.03504
6339.7,0.03188
6316.55,0.02902
6293.41,0.03081
6270.26,0.03302
6247.12,0.02920
6223.97,0.03020
6200.83,0.03335
6177.68,0.03512
6154.54,0.03110
6131.39,0.02647
6108.25,0.02611
6085.1,0.03229
6061.96,0.02777
6038.82,0.02737
6015.67,0.03053
5992.53,0.02859
5969.38,0.03135
5946.24,0.03040
5923.09,0.02825
5899.95,0.03190
5876.8,0.03163
5853.66,0.02948
5830.51,0.03235
5807.37,0.02595
5784.22,0.02627
5761.08,0.02924
5737.94,0.02827
5714.79,0.02701
5691.65,0.03090
5668.5,0.02735
5645.36,0.03256
5622.21,0.03013
5599.07,0.02869
5575.92,0.03137
5552.78,0.02780
5529.63,0.03031
5506.49,0.03216
5483.34,0.03012
5460.2,0.03129
5437.06,0.03017
5413.91,0.02900
5390.77,0.03166
5367.62,0.02965
5344.48,0.03052
5321.33,0.02806
5298.19,0.03059
5275.04,0.02919
5251.9,0.03071
5228.75,0.03054
5205.61,0.03082
5182.46,0.03028
5159.32,0.02971
5136.18,0.02959
5113.03,0.02997
5089.89,0.03038
5066.74,0.03047
5043.6,0.02906
5020.45,0.02915
4997.31,0.02915
4974.16,0.02947
4951.02,0.02960
4927.87,0.02989
4904.73,0.03037
4881.58,0.02927
4858.44,0.02876
4835.3,0.03016
4812.15,0.02978
4789.01,0.03068
4765.86,0.02918
4742.72,0.03056
4719.57,0.03136
4696.43,0.02857
4673.28,0.03041
4650.14,0.03028
4626.99,0.03055
4603.85,0.02942
4580.7,0.03045
4557.56,0.02976
4534.42,0.03007
4511.27,0.02948
4488.13,0.02979
4464.98,0.03002
4441.84,0.03048
4418.69,0.02981
4395.55,0.02973
4372.4,0.02960
4349.26,0.02959
4326.11,0.03077
4302.97,0.02951
4279.82,0.02968
4256.68,0.02976
4233.54,0.03000
4210.39,0.02975
4187.25,0.02978
4164.1,0.02970
4140.96,0.03052
4117.81,0.02966
4094.67,0.03021
4071.52,0.03009
4048.38,0.02983
4025.23,0.03080
4002.09,0.03029
3978.94,0.03033
3955.8,0.03031
3932.66,0.03080
3909.51,0.03021
3886.37,0.03062
3863.22,0.03016
3840.08,0.03106
3816.93,0.03002
3793.79,0.02952
3770.64,0.02936
3747.5,0.03144
3724.35,0.02995
3701.21,0.02961
3678.06,0.02864
3654.92,0.02878
3631.78,0.02874
3608.63,0.02770
3585.49,0.02748
3562.34,0.02828
3539.2,0.02744
3516.05,0.02674
3492.91,0.02656
3469.76,0.02677
3446.62,0.02665
3423.47,0.02632
3400.33,0.02609
3377.18,0.02588
3354.04,0.02551
3330.9,0.02519
3307.75,0.02646
3284.61,0.02605
3261.46,0.02644
3238.32,0.02646
3215.17,0.02626
3192.03,0.02667
3168.88,0.02742
3145.74,0.02702
3122.59,0.02643
3099.45,0.02726
3076.3,0.02653
3053.16,0.02691
3030.02,0.02695
3006.87,0.02664
2983.73,0.02676
2960.58,0.02553
2937.44,0.02552
2914.29,0.02669
2891.15,0.02666
2868,0.02653
2844.86,0.02698
2821.71,0.02742
2798.57,0.02710
2775.42,0.02725
2752.28,0.02750
2729.14,0.02729
2705.99,0.02738
2682.85,0.02790
2659.7,0.02689
2636.56,0.02747
2613.41,0.02692
2590.27,0.02718
2567.12,0.02700
2543.98,0.02730
2520.83,0.02695
2497.69,0.02709
2474.55,0.02705
2451.4,0.02739
2428.26,0.02725
2405.11,0.02729
2381.97,0.02702
2358.82,0.02688
2335.68,0.02757
2312.53,0.02706
2289.39,0.02676
2266.24,0.02681
2243.1,0.02620
2219.95,0.02620
2196.81,0.02668
2173.67,0.02633
2150.52,0.02618
2127.38,0.02620
2104.23,0.02620
2081.09,0.02577
2057.94,0.02609
2034.8,0.02641
2011.65,0.02612
1988.51,0.02582
1965.36,0.02570
1942.22,0.02540
1919.07,0.02577
1895.93,0.02541
1872.79,0.02515
1849.64,0.02509
1826.5,0.02501
1803.35,0.02433
1780.21,0.02340
1757.06,0.02223
1733.92,0.02360
1710.77,0.02437
1687.63,0.02290
1664.48,0.02168
1641.34,0.02224
1618.19,0.02260
1595.05,0.02240
1571.91,0.02218
1548.76,0.02174
1525.62,0.02215
1502.47,0.02182
1479.33,0.02159
1456.18,0.02207
1433.04,0.02164
1409.89,0.02151
1386.75,0.02073
1363.6,0.02106
1340.46,0.02048
1317.31,0.01951
1294.17,0.02033
1271.03,0.02164
1247.88,0.02267
1224.74,0.02220
1201.59,0.02124
1178.45,0.02073
1155.3,0.02019
1132.16,0.02029
1109.01,0.02240
1085.87,0.02204
1062.72,0.02382
1039.58,0.02231
1016.43,0.02329
993.29,0.02392
970.145,0.02318
947,0.02263
923.856,0.02248
900.711,0.02206
877.567,0.02175
854.422,0.02150
831.277,0.02139
808.133,0.02091
784.988,0.02104
761.844,0.01994
738.699,0.02053
715.554,0.01982
692.41,0.01890
669.265,0.01856
646.12,0.01891
622.976,0.01780
599.831,0.02059