File: 01_Data/PEVA/FTIR/IS/PEVA_0.26_IS_Trans_S_240819_R2.dpt
7496.91,0.93216
7473.76,0.92659
7450.62,0.92439
7427.47,0.92433
7404.33,0.94742
7381.18,0.91900
7358.04,0.92601
7334.89,0.94862
7311.75,0.92212
7288.61,0.91735
7265.46,0.92583
7242.32,0.91044
7219.17,0.91350
7196.03,0.92491
7172.88,0.91137
7149.74,0.91670
7126.59,0.90768
7103.45,0.91448
7080.3,0.92287
7057.16,0.92136
7034.02,0.92079
7010.87,0.90259
6987.73,0.91982
6964.58,0.91679
6941.44,0.92230
6918.29,0.91380
6895.15,0.91954
6872,0.91933
6848.86,0.92312
6825.71,0.92023
6802.57,0.93314
6779.43,0.93309
6756.28,0.92958
6733.14,0.92595
6709.99,0.93026
6686.85,0.93560
6663.7,0.92828
6640.56,0.93030
6617.41,0.92897
6594.27,0.94243
6571.12,0.93463
6547.98,0.93398
6524.84,0.93069
6501.69,0.93236
6478.55,0.93529
6455.4,0.93649
6432.26,0.93464
6409.11,0.93007
6385.97,0.93638
6362.82,0.93362
6339.68,0.93391
6316.53,0.93722
6293.39,0.93094
6270.24,0.93498
6247.1,0.93403
6223.96,0.93110
6200.81,0.93046
6177.67,0.93641
6154.52,0.93201
6131.38,0.92622
6108.23,0.92850
6085.09,0.91533
6061.94,0.91299
6038.8,0.89126
6015.65,0.88520
5992.51,0.89326
5969.37,0.90226
5946.22,0.89377
5923.08,0.87038
5899.93,0.84634
5876.79,0.81159
5853.64,0.77731
5830.5,0.71996
5807.35,0.75710
5784.21,0.80447
5761.06,0.82291
5737.92,0.81283
5714.78,0.81922
5691.63,0.81969
5668.49,0.83963
5645.34,0.84851
5622.2,0.85895
5599.05,0.86571
5575.91,0.87285
5552.76,0.87654
5529.62,0.87906
5506.47,0.87775
5483.33,0.87830
5460.19,0.87078
5437.04,0.87796
5413.9,0.87504
5390.75,0.88624
5367.61,0.89071
5344.46,0.88100
5321.32,0.89942
5298.17,0.90190
5275.03,0.90046
5251.88,0.89262
5228.74,0.89429
5205.6,0.89050
5182.45,0.90079
5159.31,0.90017
5136.16,0.90216
5113.02,0.90132
5089.87,0.90235
5066.73,0.90746
5043.58,0.90717
5020.44,0.90660
4997.29,0.90657
4974.15,0.90936
4951.01,0.90909
4927.86,0.91033
4904.72,0.90946
4881.57,0.90816
4858.43,0.90907
4835.28,0.90897
4812.14,0.90747
4788.99,0.90509
4765.85,0.90566
4742.7,0.90428
4719.56,0.89196
4696.42,0.87953
4673.27,0.87483
4650.13,0.88128
4626.98,0.87096
4603.84,0.89085
4580.69,0.88552
4557.55,0.89344
4534.4,0.88988
4511.26,0.88370
4488.11,0.86281
4464.97,0.84667
4441.83,0.79725
4418.68,0.69883
4395.54,0.62022
4372.39,0.54192
4349.25,0.41212
4326.1,0.37646
4302.96,0.47902
4279.81,0.47250
4256.67,0.48978
4233.52,0.48209
4210.38,0.46778
4187.24,0.50755
4164.09,0.50043
4140.95,0.56183
4117.8,0.58635
4094.66,0.54895
4071.51,0.54148
4048.37,0.61864
4025.22,0.63198
4002.08,0.65540
3978.93,0.69101
3955.79,0.70537
3932.65,0.70024
3909.5,0.70920
3886.36,0.70992
3863.21,0.70417
3840.07,0.70007
3816.92,0.71813
3793.78,0.75142
3770.63,0.75352
3747.49,0.72937
3724.34,0.76041
3701.2,0.74981
3678.06,0.66427
3654.91,0.69060
3631.77,0.68339
3608.62,0.64918
3585.48,0.62277
3562.33,0.58119
3539.19,0.55765
3516.04,0.54054
3492.9,0.49516
3469.75,0.43337
3446.61,0.37120
3423.47,0.29312
3400.32,0.38732
3377.18,0.47203
3354.03,0.50716
3330.89,0.49298
3307.74,0.35145
3284.6,0.45806
3261.45,0.56076
3238.31,0.57243
3215.16,0.55587
3192.02,0.54430
3168.87,0.54676
3145.73,0.53567
3122.59,0.49333
3099.44,0.41867
3076.3,0.33508
3053.15,0.27191
3030.01,0.24220
3006.86,0.08400
2983.72,0.00077
2960.57,0.00069
2937.43,0.00094
2914.28,0.00047
2891.14,0.00073
2868,0.00063
2844.85,0.00081
2821.71,0.06129
2798.56,0.21687
2775.42,0.34565
2752.27,0.36379
2729.13,0.33929
2705.98,0.44401
2682.84,0.46202
2659.69,0.48390
2636.55,0.50199
2613.41,0.48694
2590.26,0.48707
2567.12,0.49590
2543.97,0.51753
2520.83,0.54442
2497.68,0.59130
2474.54,0.61041
2451.39,0.61770
2428.25,0.58856
2405.1,0.54603
2381.96,0.50908
2358.82,0.50418
2335.67,0.58358
2312.53,0.63319
2289.38,0.62192
2266.24,0.61895
2243.09,0.62406
2219.95,0.63250
2196.8,0.66956
2173.66,0.69667
2150.51,0.68850
2127.37,0.68111
2104.23,0.67276
2081.08,0.65853
2057.94,0.66182
2034.79,0.68083
2011.65,0.69842
1988.5,0.66424
1965.36,0.60882
1942.21,0.51749
1919.07,0.62983
1895.92,0.64827
1872.78,0.65481
1849.64,0.59579
1826.49,0.41510
1803.35,0.42646
1780.2,0.29925
1757.06,0.08652
1733.91,0.00036
1710.77,0.00037
1687.62,0.04923
1664.48,0.18474
1641.33,0.19890
1618.19,0.30262
1595.05,0.35141
1571.9,0.16440
1548.76,0.26697
1525.61,0.24860
1502.47,0.07678
1479.32,0.03867
1456.18,0.00050
1433.03,0.00052
1409.89,-0.00005
1386.74,0.00023
1363.6,0.00131
1340.46,0.00043
1317.31,0.00021
1294.17,0.00027
1271.02,0.00070
1247.88,0.00027
1224.73,0.00065
1201.59,0.00161
1178.44,0.01186
1155.3,0.00620
1132.15,0.00024
1109.01,0.00035
1085.87,0.00062
1062.72,0.01361
1039.58,0.02288
1016.43,0.00082
993.287,0.00186
970.142,0.00044
946.998,0.00055
923.853,0.00359
900.709,0.02585
877.564,0.00449
854.42,0.03983
831.275,0.02869
808.131,0.16263
784.986,0.10266
761.842,0.10218
738.697,0.00464
715.552,0.02212
692.408,0.00088
669.263,0.01405
646.119,0.00033
622.974,0.00120
599.83,0.00460