File: 01_Data/PEVA/FTIR/IS/PEVA_0.10_IS_S_240808_R10.dpt
7496.93,0.08754
7473.78,0.09584
7450.64,0.09649
7427.49,0.09470
7404.35,0.09044
7381.2,0.09866
7358.06,0.09789
7334.91,0.11235
7311.77,0.09781
7288.62,0.09534
7265.48,0.09731
7242.34,0.10492
7219.19,0.09532
7196.05,0.09784
7172.9,0.10085
7149.76,0.09213
7126.61,0.10408
7103.47,0.09710
7080.32,0.09999
7057.18,0.09240
7034.03,0.10084
7010.89,0.09066
6987.74,0.09672
6964.6,0.09410
6941.46,0.09645
6918.31,0.10398
6895.17,0.10018
6872.02,0.10601
6848.88,0.09805
6825.73,0.09909
6802.59,0.09522
6779.44,0.10110
6756.3,0.09555
6733.15,0.10114
6710.01,0.09679
6686.86,0.09710
6663.72,0.09944
6640.58,0.09963
6617.43,0.09846
6594.29,0.09722
6571.14,0.10197
6548,0.09412
6524.85,0.10114
6501.71,0.09546
6478.56,0.10354
6455.42,0.09983
6432.27,0.09831
6409.13,0.09791
6385.98,0.10162
6362.84,0.09262
6339.7,0.10429
6316.55,0.09647
6293.41,0.09412
6270.26,0.09842
6247.12,0.10128
6223.97,0.09859
6200.83,0.10052
6177.68,0.09828
6154.54,0.09666
6131.39,0.10306
6108.25,0.10096
6085.1,0.09662
6061.96,0.09885
6038.82,0.09825
6015.67,0.09805
5992.53,0.09844
5969.38,0.09741
5946.24,0.09950
5923.09,0.09681
5899.95,0.09541
5876.8,0.09718
5853.66,0.09622
5830.51,0.09658
5807.37,0.08853
5784.22,0.08779
5761.08,0.09263
5737.94,0.09417
5714.79,0.09647
5691.65,0.09336
5668.5,0.09025
5645.36,0.09555
5622.21,0.09824
5599.07,0.09653
5575.92,0.09703
5552.78,0.09818
5529.63,0.09584
5506.49,0.09735
5483.34,0.09572
5460.2,0.09774
5437.06,0.09727
5413.91,0.09694
5390.77,0.09665
5367.62,0.09765
5344.48,0.10008
5321.33,0.09845
5298.19,0.10056
5275.04,0.09919
5251.9,0.09786
5228.75,0.09881
5205.61,0.09839
5182.46,0.09930
5159.32,0.09880
5136.18,0.10063
5113.03,0.10036
5089.89,0.09937
5066.74,0.09924
5043.6,0.10098
5020.45,0.10042
4997.31,0.10041
4974.16,0.09931
4951.02,0.10059
4927.87,0.09990
4904.73,0.10142
4881.58,0.10182
4858.44,0.10011
4835.3,0.10168
4812.15,0.10305
4789.01,0.10081
4765.86,0.10231
4742.72,0.10233
4719.57,0.10297
4696.43,0.10171
4673.28,0.10229
4650.14,0.10147
4626.99,0.10201
4603.85,0.10278
4580.7,0.10151
4557.56,0.10306
4534.42,0.10300
4511.27,0.10040
4488.13,0.09988
4464.98,0.10048
4441.84,0.09957
4418.69,0.09738
4395.55,0.09525
4372.4,0.08999
4349.26,0.08137
4326.11,0.06811
4302.97,0.08523
4279.82,0.08413
4256.68,0.07381
4233.54,0.08199
4210.39,0.08042
4187.25,0.07693
4164.1,0.07761
4140.96,0.07879
4117.81,0.07907
4094.67,0.07892
4071.52,0.08436
4048.38,0.08663
4025.23,0.08719
4002.09,0.09180
3978.94,0.09065
3955.8,0.09098
3932.66,0.09109
3909.51,0.09126
3886.37,0.09098
3863.22,0.09190
3840.08,0.09274
3816.93,0.09173
3793.79,0.09436
3770.64,0.09478
3747.5,0.09511
3724.35,0.09500
3701.21,0.09539
3678.06,0.09227
3654.92,0.09226
3631.78,0.09172
3608.63,0.08671
3585.49,0.09541
3562.34,0.09704
3539.2,0.09750
3516.05,0.09882
3492.91,0.09789
3469.76,0.09556
3446.62,0.09639
3423.47,0.09654
3400.33,0.09500
3377.18,0.09501
3354.04,0.09501
3330.9,0.09470
3307.75,0.09541
3284.61,0.09555
3261.46,0.09478
3238.32,0.09464
3215.17,0.09446
3192.03,0.09301
3168.88,0.09195
3145.74,0.08937
3122.59,0.08782
3099.45,0.08217
3076.3,0.07367
3053.16,0.06893
3030.02,0.06266
3006.87,0.05843
2983.73,0.05258
2960.58,0.04771
2937.44,0.03890
2914.29,0.09032
2891.15,0.07010
2868,0.06007
2844.86,0.08731
2821.71,0.06990
2798.57,0.06821
2775.42,0.07231
2752.28,0.07521
2729.14,0.07505
2705.99,0.07628
2682.85,0.07456
2659.7,0.07493
2636.56,0.07503
2613.41,0.07892
2590.27,0.08359
2567.12,0.09038
2543.98,0.09209
2520.83,0.09179
2497.69,0.09736
2474.55,0.09891
2451.4,0.09768
2428.26,0.09840
2405.11,0.10014
2381.97,0.09636
2358.82,0.09518
2335.68,0.09388
2312.53,0.09274
2289.39,0.09571
2266.24,0.10083
2243.1,0.09709
2219.95,0.09939
2196.81,0.10321
2173.67,0.09854
2150.52,0.09854
2127.38,0.10451
2104.23,0.09909
2081.09,0.10012
2057.94,0.10230
2034.8,0.09509
2011.65,0.09708
1988.51,0.10391
1965.36,0.09838
1942.22,0.10115
1919.07,0.10237
1895.93,0.09419
1872.79,0.10295
1849.64,0.10356
1826.5,0.09778
1803.35,0.10278
1780.21,0.10035
1757.06,0.09431
1733.92,0.09752
1710.77,0.09418
1687.63,0.09645
1664.48,0.09994
1641.34,0.09318
1618.19,0.09486
1595.05,0.09655
1571.91,0.08993
1548.76,0.09233
1525.62,0.09226
1502.47,0.08051
1479.33,0.05916
1456.18,0.06294
1433.04,0.06793
1409.89,0.08601
1386.75,0.07622
1363.6,0.07193
1340.46,0.07757
1317.31,0.07097
1294.17,0.08451
1271.03,0.08161
1247.88,0.07905
1224.74,0.10250
1201.59,0.08699
1178.45,0.07967
1155.3,0.10516
1132.16,0.08333
1109.01,0.08486
1085.87,0.10830
1062.72,0.07989
1039.58,0.09164
1016.43,0.11448
993.29,0.07663
970.145,0.09900
947,0.11802
923.856,0.06850
900.711,0.10722
877.567,0.11643
854.422,0.06345
831.277,0.11285
808.133,0.11373
784.988,0.05470
761.844,0.09652
738.699,0.08903
715.554,0.07045
692.41,0.12556
669.265,0.05858
646.12,0.09763
622.976,0.15014
599.831,0.05807