File: 01_Data/PEVA/FTIR/IS/PEVA_0.18_IS_Trans_S_240819_R5.dpt
7496.91,0.92375
7473.76,0.93001
7450.62,0.91342
7427.47,0.92738
7404.33,0.91198
7381.18,0.93598
7358.04,0.91439
7334.89,0.92384
7311.75,0.90823
7288.61,0.91422
7265.46,0.91853
7242.32,0.90335
7219.17,0.90751
7196.03,0.90674
7172.88,0.92410
7149.74,0.91593
7126.59,0.92013
7103.45,0.91691
7080.3,0.92474
7057.16,0.90613
7034.02,0.90358
7010.87,0.90774
6987.73,0.92007
6964.58,0.92420
6941.44,0.91291
6918.29,0.91565
6895.15,0.91804
6872,0.92362
6848.86,0.91891
6825.71,0.92083
6802.57,0.91928
6779.43,0.92475
6756.28,0.93123
6733.14,0.93278
6709.99,0.93233
6686.85,0.93065
6663.7,0.93028
6640.56,0.92894
6617.41,0.92902
6594.27,0.92812
6571.12,0.92355
6547.98,0.92774
6524.84,0.92529
6501.69,0.93191
6478.55,0.92791
6455.4,0.93216
6432.26,0.92288
6409.11,0.92750
6385.97,0.93387
6362.82,0.92876
6339.68,0.93199
6316.53,0.93003
6293.39,0.93171
6270.24,0.92943
6247.1,0.93114
6223.96,0.92868
6200.81,0.92462
6177.67,0.92701
6154.52,0.92937
6131.38,0.92968
6108.23,0.92125
6085.09,0.92042
6061.94,0.91879
6038.8,0.92351
6015.65,0.92084
5992.51,0.91136
5969.37,0.90993
5946.22,0.90677
5923.08,0.90279
5899.93,0.89717
5876.79,0.88352
5853.64,0.84970
5830.5,0.81696
5807.35,0.78293
5784.21,0.72578
5761.06,0.77253
5737.92,0.83515
5714.78,0.85200
5691.63,0.83051
5668.49,0.80773
5645.34,0.84272
5622.2,0.85873
5599.05,0.86679
5575.91,0.86729
5552.76,0.86374
5529.62,0.86714
5506.47,0.86202
5483.33,0.86810
5460.19,0.86231
5437.04,0.87140
5413.9,0.86317
5390.75,0.88140
5367.61,0.88638
5344.46,0.87205
5321.32,0.89187
5298.17,0.89329
5275.03,0.89408
5251.88,0.88710
5228.74,0.88783
5205.6,0.88183
5182.45,0.89203
5159.31,0.89247
5136.16,0.89583
5113.02,0.89769
5089.87,0.89842
5066.73,0.89681
5043.58,0.90062
5020.44,0.89942
4997.29,0.89908
4974.15,0.89599
4951.01,0.89881
4927.86,0.90000
4904.72,0.90102
4881.57,0.90048
4858.43,0.90079
4835.28,0.90338
4812.14,0.90329
4788.99,0.90579
4765.85,0.90371
4742.7,0.90550
4719.56,0.90234
4696.42,0.90087
4673.27,0.89472
4650.13,0.90279
4626.98,0.90595
4603.84,0.90492
4580.69,0.90428
4557.55,0.90217
4534.4,0.89844
4511.26,0.89289
4488.11,0.88020
4464.97,0.86393
4441.83,0.83060
4418.68,0.80052
4395.54,0.74824
4372.39,0.66583
4349.25,0.50848
4326.1,0.27863
4302.96,0.59231
4279.81,0.57226
4256.67,0.38347
4233.52,0.53046
4210.38,0.50084
4187.24,0.44817
4164.09,0.46350
4140.95,0.47969
4117.8,0.49645
4094.66,0.50664
4071.51,0.58118
4048.37,0.61087
4025.22,0.62930
4002.08,0.68515
3978.93,0.67869
3955.79,0.69661
3932.65,0.68438
3909.5,0.69131
3886.36,0.68430
3863.21,0.68788
3840.07,0.68320
3816.92,0.69673
3793.78,0.74356
3770.63,0.74638
3747.49,0.71747
3724.34,0.73824
3701.2,0.74309
3678.06,0.71084
3654.91,0.69965
3631.77,0.69942
3608.62,0.65464
3585.48,0.76318
3562.33,0.79184
3539.19,0.81491
3516.04,0.82030
3492.9,0.81108
3469.75,0.72066
3446.61,0.68926
3423.47,0.78863
3400.32,0.80310
3377.18,0.79181
3354.03,0.80164
3330.89,0.81274
3307.74,0.81578
3284.6,0.81504
3261.45,0.81015
3238.31,0.80157
3215.16,0.78443
3192.02,0.76305
3168.87,0.74277
3145.73,0.71800
3122.59,0.67545
3099.44,0.58271
3076.3,0.45839
3053.15,0.36278
3030.01,0.23029
3006.86,0.14186
2983.72,0.03309
2960.57,0.00046
2937.43,0.00051
2914.28,0.00069
2891.14,0.00071
2868,0.00044
2844.85,0.00085
2821.71,0.00871
2798.56,0.07964
2775.42,0.21084
2752.27,0.27227
2729.13,0.29240
2705.98,0.34394
2682.84,0.31466
2659.69,0.31996
2636.55,0.34326
2613.41,0.43173
2590.26,0.51571
2567.12,0.60176
2543.97,0.64997
2520.83,0.67327
2497.68,0.69961
2474.54,0.68608
2451.39,0.74286
2428.25,0.75143
2405.1,0.74007
2381.96,0.72952
2358.82,0.61706
2335.67,0.59349
2312.53,0.64924
2289.38,0.71562
2266.24,0.74193
2243.09,0.76048
2219.95,0.78951
2196.8,0.77407
2173.66,0.74586
2150.51,0.73630
2127.37,0.78185
2104.23,0.79402
2081.08,0.78856
2057.94,0.76759
2034.79,0.72434
2011.65,0.72654
1988.5,0.78917
1965.36,0.78658
1942.21,0.77051
1919.07,0.75335
1895.92,0.70306
1872.78,0.69808
1849.64,0.69348
1826.49,0.63167
1803.35,0.54569
1780.2,0.38312
1757.06,0.04998
1733.91,0.00098
1710.77,0.15331
1687.62,0.34211
1664.48,0.52372
1641.33,0.55029
1618.19,0.63685
1595.05,0.65052
1571.9,0.61248
1548.76,0.57539
1525.61,0.50745
1502.47,0.42861
1479.32,0.10989
1456.18,0.00065
1433.03,0.02338
1409.89,0.26596
1386.74,0.07651
1363.6,0.00256
1340.46,0.21905
1317.31,0.24308
1294.17,0.12642
1271.02,0.01602
1247.88,0.00064
1224.73,0.00016
1201.59,0.08979
1178.44,0.20668
1155.3,0.17845
1132.15,0.12180
1109.01,0.15665
1085.87,0.12592
1062.72,0.07547
1039.58,0.02500
1016.43,0.00206
993.287,0.20668
970.142,0.18190
946.998,0.17240
923.853,0.38449
900.709,0.48251
877.564,0.49978
854.42,0.52790
831.275,0.59950
808.131,0.58463
784.986,0.62377
761.842,0.56337
738.697,0.30638
715.552,0.05030
692.408,0.70170
669.263,0.70196
646.119,0.57099
622.974,0.54137
599.83,0.51788