File: 01_Data/PEVA/FTIR/IS/PEVA_0.26_IS_Trans_S_240819_R3.dpt
7496.91,0.93303
7473.76,0.92287
7450.62,0.93754
7427.47,0.92071
7404.33,0.91824
7381.18,0.91540
7358.04,0.91855
7334.89,0.92520
7311.75,0.91191
7288.61,0.91821
7265.46,0.90489
7242.32,0.91219
7219.17,0.91351
7196.03,0.90340
7172.88,0.90141
7149.74,0.90639
7126.59,0.91035
7103.45,0.90534
7080.3,0.90987
7057.16,0.91021
7034.02,0.90318
7010.87,0.89950
6987.73,0.91569
6964.58,0.91926
6941.44,0.91015
6918.29,0.91660
6895.15,0.92204
6872,0.91207
6848.86,0.91708
6825.71,0.91541
6802.57,0.91925
6779.43,0.91441
6756.28,0.92473
6733.14,0.92285
6709.99,0.92696
6686.85,0.92593
6663.7,0.92569
6640.56,0.92365
6617.41,0.92681
6594.27,0.92104
6571.12,0.92285
6547.98,0.92801
6524.84,0.91976
6501.69,0.92752
6478.55,0.92640
6455.4,0.92903
6432.26,0.92957
6409.11,0.92614
6385.97,0.92954
6362.82,0.92890
6339.68,0.92785
6316.53,0.92784
6293.39,0.93131
6270.24,0.92511
6247.1,0.92634
6223.96,0.92478
6200.81,0.92829
6177.67,0.92483
6154.52,0.92081
6131.38,0.91931
6108.23,0.91643
6085.09,0.91339
6061.94,0.90079
6038.8,0.88541
6015.65,0.87720
5992.51,0.89046
5969.37,0.89849
5946.22,0.88811
5923.08,0.86750
5899.93,0.84212
5876.79,0.80713
5853.64,0.76912
5830.5,0.72422
5807.35,0.75336
5784.21,0.79679
5761.06,0.81697
5737.92,0.81135
5714.78,0.81578
5691.63,0.81789
5668.49,0.83299
5645.34,0.84497
5622.2,0.85581
5599.05,0.85890
5575.91,0.86912
5552.76,0.87032
5529.62,0.87440
5506.47,0.87452
5483.33,0.87339
5460.19,0.86961
5437.04,0.87521
5413.9,0.87588
5390.75,0.88498
5367.61,0.88970
5344.46,0.88287
5321.32,0.89538
5298.17,0.89566
5275.03,0.89583
5251.88,0.89212
5228.74,0.89176
5205.6,0.89123
5182.45,0.89448
5159.31,0.89525
5136.16,0.89690
5113.02,0.89662
5089.87,0.89641
5066.73,0.89981
5043.58,0.90140
5020.44,0.90313
4997.29,0.90145
4974.15,0.90348
4951.01,0.90404
4927.86,0.90171
4904.72,0.90463
4881.57,0.90321
4858.43,0.90468
4835.28,0.90274
4812.14,0.90229
4788.99,0.90143
4765.85,0.90105
4742.7,0.89973
4719.56,0.88763
4696.42,0.87343
4673.27,0.87030
4650.13,0.87783
4626.98,0.86571
4603.84,0.88614
4580.69,0.88040
4557.55,0.88851
4534.4,0.88603
4511.26,0.87884
4488.11,0.85860
4464.97,0.84231
4441.83,0.79215
4418.68,0.69574
4395.54,0.61765
4372.39,0.54002
4349.25,0.41126
4326.1,0.37564
4302.96,0.47782
4279.81,0.47156
4256.67,0.48913
4233.52,0.48093
4210.38,0.46630
4187.24,0.50633
4164.09,0.50003
4140.95,0.56078
4117.8,0.58439
4094.66,0.54656
4071.51,0.53927
4048.37,0.61664
4025.22,0.62955
4002.08,0.65279
3978.93,0.68777
3955.79,0.70235
3932.65,0.70035
3909.5,0.70641
3886.36,0.71090
3863.21,0.70780
3840.07,0.70809
3816.92,0.72222
3793.78,0.75004
3770.63,0.75434
3747.49,0.73870
3724.34,0.76517
3701.2,0.74900
3678.06,0.66409
3654.91,0.68905
3631.77,0.68388
3608.62,0.64935
3585.48,0.62124
3562.33,0.57846
3539.19,0.55234
3516.04,0.53642
3492.9,0.49080
3469.75,0.42809
3446.61,0.36924
3423.47,0.29042
3400.32,0.38551
3377.18,0.46871
3354.03,0.50348
3330.89,0.48933
3307.74,0.35084
3284.6,0.45625
3261.45,0.55749
3238.31,0.56822
3215.16,0.55363
3192.02,0.54046
3168.87,0.54415
3145.73,0.53308
3122.59,0.49161
3099.44,0.41776
3076.3,0.33482
3053.15,0.27153
3030.01,0.24191
3006.86,0.08370
2983.72,0.00060
2960.57,0.00022
2937.43,0.00039
2914.28,0.00040
2891.14,0.00045
2868,0.00087
2844.85,0.00066
2821.71,0.06169
2798.56,0.21660
2775.42,0.34515
2752.27,0.36290
2729.13,0.33879
2705.98,0.44288
2682.84,0.46055
2659.69,0.48193
2636.55,0.50067
2613.41,0.48556
2590.26,0.48626
2567.12,0.49505
2543.97,0.51534
2520.83,0.54227
2497.68,0.58940
2474.54,0.60881
2451.39,0.61613
2428.25,0.58671
2405.1,0.54405
2381.96,0.50975
2358.82,0.51930
2335.67,0.59584
2312.53,0.63853
2289.38,0.62118
2266.24,0.61743
2243.09,0.62232
2219.95,0.63124
2196.8,0.66742
2173.66,0.69344
2150.51,0.68503
2127.37,0.67850
2104.23,0.67102
2081.08,0.65702
2057.94,0.65965
2034.79,0.67738
2011.65,0.69537
1988.5,0.66283
1965.36,0.60796
1942.21,0.51842
1919.07,0.62999
1895.92,0.64724
1872.78,0.65366
1849.64,0.59493
1826.49,0.41639
1803.35,0.42707
1780.2,0.30035
1757.06,0.08725
1733.91,0.00070
1710.77,0.00050
1687.62,0.04972
1664.48,0.18510
1641.33,0.19915
1618.19,0.30209
1595.05,0.35045
1571.9,0.16566
1548.76,0.26856
1525.61,0.25157
1502.47,0.07750
1479.32,0.03919
1456.18,0.00062
1433.03,0.00006
1409.89,-0.00000
1386.74,0.00051
1363.6,0.00158
1340.46,0.00033
1317.31,0.00032
1294.17,0.00056
1271.02,0.00022
1247.88,0.00027
1224.73,0.00038
1201.59,0.00130
1178.44,0.01194
1155.3,0.00618
1132.15,0.00013
1109.01,0.00036
1085.87,0.00045
1062.72,0.01420
1039.58,0.02353
1016.43,0.00090
993.287,0.00216
970.142,0.00041
946.998,0.00049
923.853,0.00354
900.709,0.02565
877.564,0.00453
854.42,0.04003
831.275,0.02931
808.131,0.16227
784.986,0.10265
761.842,0.10253
738.697,0.00453
715.552,0.02250
692.408,0.00131
669.263,0.01296
646.119,-0.00005
622.974,0.00082
599.83,0.00545