File: 01_Data/PEVA/FTIR/IS/PEVA_0.26_IS_Trans_S_240819_R4.dpt
7496.91,0.97809
7473.76,0.99026
7450.62,0.98577
7427.47,0.98315
7404.33,0.97447
7381.18,0.96663
7358.04,0.97016
7334.89,0.97875
7311.75,0.97240
7288.61,0.96265
7265.46,0.97367
7242.32,0.95338
7219.17,0.95443
7196.03,0.95904
7172.88,0.96483
7149.74,0.95200
7126.59,0.95889
7103.45,0.95735
7080.3,0.97097
7057.16,0.95408
7034.02,0.96393
7010.87,0.95990
6987.73,0.96008
6964.58,0.95678
6941.44,0.97473
6918.29,0.96033
6895.15,0.97417
6872,0.96411
6848.86,0.97165
6825.71,0.96852
6802.57,0.96560
6779.43,0.97463
6756.28,0.97607
6733.14,0.97272
6709.99,0.97966
6686.85,0.97724
6663.7,0.97415
6640.56,0.98009
6617.41,0.97569
6594.27,0.97802
6571.12,0.98321
6547.98,0.98077
6524.84,0.98002
6501.69,0.98392
6478.55,0.97865
6455.4,0.98083
6432.26,0.98275
6409.11,0.98339
6385.97,0.97998
6362.82,0.97397
6339.68,0.97955
6316.53,0.98820
6293.39,0.98472
6270.24,0.98074
6247.1,0.98531
6223.96,0.97659
6200.81,0.98012
6177.67,0.97736
6154.52,0.97457
6131.38,0.97019
6108.23,0.96870
6085.09,0.96126
6061.94,0.95330
6038.8,0.93994
6015.65,0.92877
5992.51,0.94076
5969.37,0.94794
5946.22,0.93582
5923.08,0.91718
5899.93,0.89114
5876.79,0.84983
5853.64,0.81391
5830.5,0.76212
5807.35,0.79677
5784.21,0.84195
5761.06,0.86404
5737.92,0.85765
5714.78,0.85905
5691.63,0.86659
5668.49,0.88250
5645.34,0.89057
5622.2,0.90178
5599.05,0.91004
5575.91,0.91543
5552.76,0.92305
5529.62,0.92246
5506.47,0.92354
5483.33,0.92161
5460.19,0.91872
5437.04,0.92825
5413.9,0.92663
5390.75,0.93463
5367.61,0.94047
5344.46,0.93395
5321.32,0.94442
5298.17,0.94639
5275.03,0.94518
5251.88,0.94063
5228.74,0.94241
5205.6,0.94080
5182.45,0.94691
5159.31,0.94639
5136.16,0.95116
5113.02,0.94737
5089.87,0.94865
5066.73,0.94982
5043.58,0.95309
5020.44,0.95316
4997.29,0.95214
4974.15,0.95389
4951.01,0.95391
4927.86,0.95434
4904.72,0.95412
4881.57,0.95362
4858.43,0.95414
4835.28,0.95444
4812.14,0.95358
4788.99,0.94973
4765.85,0.94979
4742.7,0.94980
4719.56,0.93672
4696.42,0.92314
4673.27,0.91925
4650.13,0.92635
4626.98,0.91368
4603.84,0.93719
4580.69,0.92979
4557.55,0.93797
4534.4,0.93584
4511.26,0.92844
4488.11,0.90633
4464.97,0.88928
4441.83,0.83795
4418.68,0.73375
4395.54,0.65093
4372.39,0.56895
4349.25,0.43360
4326.1,0.39447
4302.96,0.50217
4279.81,0.49711
4256.67,0.51429
4233.52,0.50552
4210.38,0.49088
4187.24,0.53333
4164.09,0.52530
4140.95,0.59014
4117.8,0.61569
4094.66,0.57544
4071.51,0.56896
4048.37,0.65034
4025.22,0.66321
4002.08,0.68870
3978.93,0.72563
3955.79,0.74212
3932.65,0.74010
3909.5,0.74637
3886.36,0.74987
3863.21,0.74863
3840.07,0.74770
3816.92,0.76431
3793.78,0.79220
3770.63,0.79790
3747.49,0.78370
3724.34,0.80899
3701.2,0.79280
3678.06,0.70382
3654.91,0.72993
3631.77,0.72437
3608.62,0.68750
3585.48,0.65772
3562.33,0.61232
3539.19,0.58383
3516.04,0.56657
3492.9,0.51869
3469.75,0.45259
3446.61,0.38996
3423.47,0.30720
3400.32,0.40664
3377.18,0.49340
3354.03,0.53071
3330.89,0.51470
3307.74,0.36749
3284.6,0.47761
3261.45,0.58579
3238.31,0.59779
3215.16,0.58292
3192.02,0.56856
3168.87,0.57254
3145.73,0.56170
3122.59,0.51819
3099.44,0.43965
3076.3,0.35179
3053.15,0.28529
3030.01,0.25393
3006.86,0.08799
2983.72,0.00074
2960.57,0.00003
2937.43,0.00076
2914.28,0.00038
2891.14,0.00095
2868,0.00076
2844.85,0.00128
2821.71,0.06433
2798.56,0.22768
2775.42,0.36354
2752.27,0.38230
2729.13,0.35640
2705.98,0.46733
2682.84,0.48590
2659.69,0.50876
2636.55,0.52784
2613.41,0.51226
2590.26,0.51259
2567.12,0.52160
2543.97,0.54460
2520.83,0.57299
2497.68,0.62308
2474.54,0.64317
2451.39,0.65080
2428.25,0.61955
2405.1,0.57493
2381.96,0.53785
2358.82,0.54340
2335.67,0.62465
2312.53,0.67287
2289.38,0.65675
2266.24,0.65302
2243.09,0.65874
2219.95,0.66750
2196.8,0.70592
2173.66,0.73345
2150.51,0.72580
2127.37,0.71889
2104.23,0.71062
2081.08,0.69581
2057.94,0.69860
2034.79,0.71793
2011.65,0.73713
1988.5,0.70262
1965.36,0.64446
1942.21,0.54841
1919.07,0.66740
1895.92,0.68591
1872.78,0.69305
1849.64,0.63080
1826.49,0.44160
1803.35,0.45253
1780.2,0.31784
1757.06,0.09160
1733.91,0.00011
1710.77,0.00044
1687.62,0.05244
1664.48,0.19526
1641.33,0.20999
1618.19,0.32010
1595.05,0.37088
1571.9,0.17513
1548.76,0.28422
1525.61,0.26731
1502.47,0.08156
1479.32,0.04097
1456.18,0.00067
1433.03,0.00031
1409.89,0.00016
1386.74,0.00010
1363.6,0.00162
1340.46,0.00030
1317.31,0.00035
1294.17,0.00078
1271.02,0.00014
1247.88,0.00027
1224.73,0.00036
1201.59,0.00157
1178.44,0.01271
1155.3,0.00627
1132.15,0.00030
1109.01,0.00055
1085.87,0.00089
1062.72,0.01496
1039.58,0.02425
1016.43,0.00058
993.287,0.00219
970.142,0.00092
946.998,0.00040
923.853,0.00366
900.709,0.02785
877.564,0.00482
854.42,0.04169
831.275,0.03138
808.131,0.17189
784.986,0.10901
761.842,0.10872
738.697,0.00531
715.552,0.02317
692.408,0.00130
669.263,0.01273
646.119,0.00096
622.974,0.00148
599.83,0.00447