File: 01_Data/PEVA/FTIR/IS/PEVA_0.26_IS_T_240809_R14.dpt
7497.2,0.03699
7474.05,0.02661
7450.91,0.03190
7427.76,0.03519
7404.62,0.03280
7381.47,0.04695
7358.33,0.02871
7335.18,0.04399
7312.04,0.03854
7288.89,0.02706
7265.75,0.03483
7242.6,0.02813
7219.45,0.03442
7196.31,0.04052
7173.16,0.03231
7150.02,0.03974
7126.87,0.03092
7103.73,0.02826
7080.58,0.02436
7057.44,0.03282
7034.29,0.03718
7011.15,0.03906
6988,0.03170
6964.85,0.03951
6941.71,0.03733
6918.56,0.03219
6895.42,0.03600
6872.27,0.03998
6849.13,0.04152
6825.98,0.03607
6802.84,0.02990
6779.69,0.03854
6756.55,0.03707
6733.4,0.03452
6710.25,0.02985
6687.11,0.03089
6663.96,0.03448
6640.82,0.03567
6617.67,0.03296
6594.53,0.03250
6571.38,0.02697
6548.24,0.03819
6525.09,0.03055
6501.95,0.03432
6478.8,0.03238
6455.65,0.02733
6432.51,0.02630
6409.36,0.03207
6386.22,0.03308
6363.07,0.03010
6339.93,0.02865
6316.78,0.02796
6293.64,0.03182
6270.49,0.03175
6247.34,0.03586
6224.2,0.02897
6201.05,0.03457
6177.91,0.03041
6154.76,0.02917
6131.62,0.03403
6108.47,0.03540
6085.33,0.03105
6062.18,0.02785
6039.04,0.03262
6015.89,0.02933
5992.74,0.03338
5969.6,0.02907
5946.45,0.03372
5923.31,0.03006
5900.16,0.03182
5877.02,0.02887
5853.87,0.03087
5830.73,0.03047
5807.58,0.03123
5784.44,0.03116
5761.29,0.02896
5738.14,0.02895
5715,0.02879
5691.85,0.02685
5668.71,0.02961
5645.56,0.03039
5622.42,0.02797
5599.27,0.03162
5576.13,0.03061
5552.98,0.03008
5529.84,0.02995
5506.69,0.03156
5483.54,0.03021
5460.4,0.02979
5437.25,0.02997
5414.11,0.03092
5390.96,0.03118
5367.82,0.02959
5344.67,0.02987
5321.53,0.03111
5298.38,0.03117
5275.24,0.02855
5252.09,0.03096
5228.94,0.03046
5205.8,0.03082
5182.65,0.03276
5159.51,0.02897
5136.36,0.03257
5113.22,0.02921
5090.07,0.02986
5066.93,0.02969
5043.78,0.03120
5020.64,0.03087
4997.49,0.02962
4974.34,0.03025
4951.2,0.03207
4928.05,0.03069
4904.91,0.03143
4881.76,0.03027
4858.62,0.02979
4835.47,0.03033
4812.33,0.03047
4789.18,0.02973
4766.04,0.03063
4742.89,0.03202
4719.74,0.03100
4696.6,0.03062
4673.45,0.03076
4650.31,0.02978
4627.16,0.03004
4604.02,0.02955
4580.87,0.03022
4557.73,0.03159
4534.58,0.03022
4511.44,0.03089
4488.29,0.03055
4465.14,0.03034
4442,0.03030
4418.85,0.02961
4395.71,0.03039
4372.56,0.03047
4349.42,0.03022
4326.27,0.03027
4303.13,0.02982
4279.98,0.02979
4256.84,0.03052
4233.69,0.03075
4210.54,0.02992
4187.4,0.03059
4164.25,0.03055
4141.11,0.02984
4117.96,0.03064
4094.82,0.02980
4071.67,0.03054
4048.53,0.02997
4025.38,0.03001
4002.24,0.03021
3979.09,0.02946
3955.94,0.03004
3932.8,0.03055
3909.65,0.03053
3886.51,0.03048
3863.36,0.03088
3840.22,0.03024
3817.07,0.03031
3793.93,0.02980
3770.78,0.03028
3747.64,0.03084
3724.49,0.02913
3701.34,0.02935
3678.2,0.02933
3655.05,0.02953
3631.91,0.02912
3608.76,0.02839
3585.62,0.02788
3562.47,0.02752
3539.33,0.02746
3516.18,0.02727
3493.04,0.02710
3469.89,0.02660
3446.74,0.02687
3423.6,0.02688
3400.45,0.02635
3377.31,0.02578
3354.16,0.02570
3331.02,0.02617
3307.87,0.02671
3284.73,0.02656
3261.58,0.02664
3238.44,0.02644
3215.29,0.02732
3192.14,0.02702
3169,0.02711
3145.85,0.02734
3122.71,0.02759
3099.56,0.02660
3076.42,0.02780
3053.27,0.02661
3030.13,0.02699
3006.98,0.02600
2983.84,0.02631
2960.69,0.02533
2937.54,0.02538
2914.4,0.02652
2891.25,0.02688
2868.11,0.02676
2844.96,0.02755
2821.82,0.02755
2798.67,0.02739
2775.53,0.02729
2752.38,0.02742
2729.24,0.02744
2706.09,0.02743
2682.94,0.02785
2659.8,0.02690
2636.65,0.02751
2613.51,0.02723
2590.36,0.02710
2567.22,0.02729
2544.07,0.02705
2520.93,0.02721
2497.78,0.02730
2474.64,0.02682
2451.49,0.02707
2428.34,0.02695
2405.2,0.02691
2382.05,0.02656
2358.91,0.02683
2335.76,0.02719
2312.62,0.02663
2289.47,0.02667
2266.33,0.02653
2243.18,0.02651
2220.04,0.02657
2196.89,0.02604
2173.74,0.02642
2150.6,0.02617
2127.45,0.02602
2104.31,0.02621
2081.16,0.02611
2058.02,0.02583
2034.87,0.02594
2011.73,0.02600
1988.58,0.02595
1965.44,0.02592
1942.29,0.02552
1919.14,0.02570
1896,0.02554
1872.85,0.02542
1849.71,0.02482
1826.56,0.02457
1803.42,0.02403
1780.27,0.02367
1757.13,0.02177
1733.98,0.02390
1710.84,0.02444
1687.69,0.02331
1664.54,0.02213
1641.4,0.02222
1618.25,0.02289
1595.11,0.02258
1571.96,0.02200
1548.82,0.02179
1525.67,0.02274
1502.53,0.02236
1479.38,0.02182
1456.24,0.02160
1433.09,0.02161
1409.94,0.02151
1386.8,0.02113
1363.65,0.02133
1340.51,0.02096
1317.36,0.02026
1294.22,0.02096
1271.07,0.02179
1247.93,0.02238
1224.78,0.02179
1201.64,0.02159
1178.49,0.02093
1155.34,0.02008
1132.2,0.02069
1109.05,0.02244
1085.91,0.02228
1062.76,0.02347
1039.62,0.02407
1016.47,0.02285
993.326,0.02434
970.18,0.02372
947.035,0.02298
923.89,0.02322
900.744,0.02287
877.599,0.02177
854.453,0.02169
831.308,0.02193
808.162,0.02139
785.017,0.02104
761.871,0.02072
738.726,0.02065
715.58,0.02044
692.435,0.01955
669.29,0.01732
646.144,0.01749
622.999,0.02032
599.853,0.01761