File: 01_Data/PEVA/FTIR/IS/PEVA_0.10_IS_T_240808_R4.dpt
7496.93,0.02595
7473.78,0.04107
7450.64,0.02529
7427.49,0.04010
7404.35,0.02404
7381.2,0.03477
7358.06,0.04716
7334.91,0.03821
7311.77,0.03721
7288.62,0.02459
7265.48,0.03351
7242.34,0.02031
7219.19,0.03343
7196.05,0.02591
7172.9,0.03098
7149.76,0.02401
7126.61,0.03783
7103.47,0.03421
7080.32,0.03454
7057.18,0.03106
7034.03,0.03065
7010.89,0.03568
6987.74,0.02238
6964.6,0.04418
6941.46,0.03243
6918.31,0.03652
6895.17,0.03233
6872.02,0.03450
6848.88,0.03424
6825.73,0.03105
6802.59,0.04041
6779.44,0.02633
6756.3,0.02743
6733.15,0.03159
6710.01,0.03323
6686.86,0.02995
6663.72,0.03031
6640.58,0.03199
6617.43,0.03349
6594.29,0.02867
6571.14,0.03224
6548,0.03284
6524.85,0.03445
6501.71,0.02534
6478.56,0.02824
6455.42,0.02772
6432.27,0.03186
6409.13,0.02651
6385.98,0.02374
6362.84,0.03391
6339.7,0.02895
6316.55,0.02886
6293.41,0.02987
6270.26,0.03271
6247.12,0.03457
6223.97,0.02922
6200.83,0.03232
6177.68,0.03017
6154.54,0.02994
6131.39,0.03327
6108.25,0.02823
6085.1,0.02808
6061.96,0.02999
6038.82,0.02830
6015.67,0.03128
5992.53,0.02933
5969.38,0.02591
5946.24,0.03032
5923.09,0.02548
5899.95,0.02717
5876.8,0.02890
5853.66,0.03314
5830.51,0.02907
5807.37,0.02587
5784.22,0.02978
5761.08,0.02629
5737.94,0.02952
5714.79,0.03037
5691.65,0.03060
5668.5,0.03229
5645.36,0.02866
5622.21,0.03047
5599.07,0.02796
5575.92,0.02975
5552.78,0.02810
5529.63,0.02999
5506.49,0.02863
5483.34,0.02826
5460.2,0.02956
5437.06,0.02829
5413.91,0.03004
5390.77,0.02735
5367.62,0.02933
5344.48,0.02727
5321.33,0.03061
5298.19,0.02911
5275.04,0.02924
5251.9,0.02931
5228.75,0.03010
5205.61,0.02839
5182.46,0.03002
5159.32,0.02960
5136.18,0.03030
5113.03,0.02905
5089.89,0.02947
5066.74,0.03057
5043.6,0.02974
5020.45,0.02871
4997.31,0.02935
4974.16,0.02881
4951.02,0.03037
4927.87,0.03040
4904.73,0.02942
4881.58,0.02778
4858.44,0.02878
4835.3,0.03110
4812.15,0.02958
4789.01,0.02847
4765.86,0.02980
4742.72,0.03031
4719.57,0.02976
4696.43,0.02905
4673.28,0.02925
4650.14,0.02892
4626.99,0.02990
4603.85,0.02974
4580.7,0.02978
4557.56,0.02894
4534.42,0.02963
4511.27,0.02940
4488.13,0.02868
4464.98,0.02892
4441.84,0.02914
4418.69,0.02891
4395.55,0.02980
4372.4,0.02896
4349.26,0.02910
4326.11,0.02891
4302.97,0.02875
4279.82,0.02923
4256.68,0.02999
4233.54,0.02934
4210.39,0.02945
4187.25,0.02913
4164.1,0.02902
4140.96,0.02923
4117.81,0.02897
4094.67,0.02845
4071.52,0.03011
4048.38,0.02950
4025.23,0.02916
4002.09,0.02916
3978.94,0.02993
3955.8,0.02876
3932.66,0.02970
3909.51,0.02957
3886.37,0.02980
3863.22,0.02944
3840.08,0.03000
3816.93,0.02994
3793.79,0.02947
3770.64,0.02990
3747.5,0.03004
3724.35,0.02898
3701.21,0.02845
3678.06,0.02855
3654.92,0.02774
3631.78,0.02819
3608.63,0.02728
3585.49,0.02686
3562.34,0.02667
3539.2,0.02617
3516.05,0.02644
3492.91,0.02667
3469.76,0.02498
3446.62,0.02499
3423.47,0.02660
3400.33,0.02572
3377.18,0.02507
3354.04,0.02515
3330.9,0.02526
3307.75,0.02460
3284.61,0.02493
3261.46,0.02584
3238.32,0.02563
3215.17,0.02564
3192.03,0.02581
3168.88,0.02606
3145.74,0.02676
3122.59,0.02624
3099.45,0.02622
3076.3,0.02636
3053.16,0.02620
3030.02,0.02577
3006.87,0.02634
2983.73,0.02543
2960.58,0.02478
2937.44,0.02529
2914.29,0.02571
2891.15,0.02593
2868,0.02607
2844.86,0.02607
2821.71,0.02664
2798.57,0.02652
2775.42,0.02662
2752.28,0.02679
2729.14,0.02695
2705.99,0.02631
2682.85,0.02656
2659.7,0.02634
2636.56,0.02671
2613.41,0.02632
2590.27,0.02650
2567.12,0.02681
2543.98,0.02636
2520.83,0.02609
2497.69,0.02660
2474.55,0.02608
2451.4,0.02667
2428.26,0.02650
2405.11,0.02625
2381.97,0.02674
2358.82,0.02639
2335.68,0.02643
2312.53,0.02582
2289.39,0.02634
2266.24,0.02556
2243.1,0.02597
2219.95,0.02540
2196.81,0.02587
2173.67,0.02509
2150.52,0.02549
2127.38,0.02562
2104.23,0.02569
2081.09,0.02517
2057.94,0.02516
2034.8,0.02488
2011.65,0.02543
1988.51,0.02518
1965.36,0.02508
1942.22,0.02518
1919.07,0.02471
1895.93,0.02446
1872.79,0.02436
1849.64,0.02413
1826.5,0.02394
1803.35,0.02351
1780.21,0.02239
1757.06,0.02140
1733.92,0.02296
1710.77,0.02390
1687.63,0.02263
1664.48,0.02103
1641.34,0.02138
1618.19,0.02133
1595.05,0.02160
1571.91,0.02148
1548.76,0.02057
1525.62,0.02124
1502.47,0.02124
1479.33,0.02113
1456.18,0.02068
1433.04,0.02065
1409.89,0.02009
1386.75,0.02021
1363.6,0.01966
1340.46,0.01979
1317.31,0.01878
1294.17,0.01977
1271.03,0.02123
1247.88,0.02175
1224.74,0.02119
1201.59,0.02052
1178.45,0.01995
1155.3,0.01914
1132.16,0.02024
1109.01,0.02105
1085.87,0.02152
1062.72,0.02230
1039.58,0.02275
1016.43,0.02249
993.29,0.02266
970.145,0.02276
947,0.02236
923.856,0.02194
900.711,0.02111
877.567,0.02117
854.422,0.02109
831.277,0.02081
808.133,0.02048
784.988,0.02044
761.844,0.01982
738.699,0.01902
715.554,0.01912
692.41,0.01831
669.265,0.01696
646.12,0.01772
622.976,0.01746
599.831,0.01798