File: 01_Data/PEVA/FTIR/IS/PEVA_0.26_IS_Trans_S_240819_R8.dpt
7496.91,0.93933
7473.76,0.93787
7450.62,0.94432
7427.47,0.92305
7404.33,0.93847
7381.18,0.93367
7358.04,0.94862
7334.89,0.93826
7311.75,0.92750
7288.61,0.92234
7265.46,0.90692
7242.32,0.92246
7219.17,0.92455
7196.03,0.91211
7172.88,0.92939
7149.74,0.90667
7126.59,0.92331
7103.45,0.90839
7080.3,0.91131
7057.16,0.91443
7034.02,0.91551
7010.87,0.91570
6987.73,0.91909
6964.58,0.91847
6941.44,0.91929
6918.29,0.91376
6895.15,0.91237
6872,0.92241
6848.86,0.92978
6825.71,0.93045
6802.57,0.91623
6779.43,0.92013
6756.28,0.93317
6733.14,0.93773
6709.99,0.92943
6686.85,0.93049
6663.7,0.92915
6640.56,0.92682
6617.41,0.92246
6594.27,0.93253
6571.12,0.93283
6547.98,0.92631
6524.84,0.93676
6501.69,0.93017
6478.55,0.93366
6455.4,0.93209
6432.26,0.92436
6409.11,0.93528
6385.97,0.92840
6362.82,0.93424
6339.68,0.93157
6316.53,0.93233
6293.39,0.92919
6270.24,0.92814
6247.1,0.92936
6223.96,0.93551
6200.81,0.93082
6177.67,0.93007
6154.52,0.92527
6131.38,0.91866
6108.23,0.92393
6085.09,0.91305
6061.94,0.90679
6038.8,0.89449
6015.65,0.87993
5992.51,0.89077
5969.37,0.90006
5946.22,0.89469
5923.08,0.87167
5899.93,0.84403
5876.79,0.81044
5853.64,0.77239
5830.5,0.72660
5807.35,0.75541
5784.21,0.80226
5761.06,0.82222
5737.92,0.81357
5714.78,0.81691
5691.63,0.82118
5668.49,0.83534
5645.34,0.84732
5622.2,0.85594
5599.05,0.86150
5575.91,0.87121
5552.76,0.87687
5529.62,0.87850
5506.47,0.87416
5483.33,0.87514
5460.19,0.87439
5437.04,0.87808
5413.9,0.87525
5390.75,0.88745
5367.61,0.89209
5344.46,0.88356
5321.32,0.89618
5298.17,0.89896
5275.03,0.90012
5251.88,0.89364
5228.74,0.89530
5205.6,0.89374
5182.45,0.89915
5159.31,0.89702
5136.16,0.89950
5113.02,0.89840
5089.87,0.90162
5066.73,0.90297
5043.58,0.90546
5020.44,0.90468
4997.29,0.90505
4974.15,0.90666
4951.01,0.90538
4927.86,0.90514
4904.72,0.90483
4881.57,0.90537
4858.43,0.90590
4835.28,0.90631
4812.14,0.90433
4788.99,0.90213
4765.85,0.90409
4742.7,0.90232
4719.56,0.89065
4696.42,0.87673
4673.27,0.87491
4650.13,0.87994
4626.98,0.86805
4603.84,0.88785
4580.69,0.88416
4557.55,0.89080
4534.4,0.88832
4511.26,0.88201
4488.11,0.85930
4464.97,0.84530
4441.83,0.79403
4418.68,0.69690
4395.54,0.61913
4372.39,0.54075
4349.25,0.41188
4326.1,0.37471
4302.96,0.47789
4279.81,0.47204
4256.67,0.48896
4233.52,0.48149
4210.38,0.46750
4187.24,0.50693
4164.09,0.49983
4140.95,0.56114
4117.8,0.58492
4094.66,0.54697
4071.51,0.54003
4048.37,0.61869
4025.22,0.62996
4002.08,0.65322
3978.93,0.68923
3955.79,0.70430
3932.65,0.70083
3909.5,0.70793
3886.36,0.70994
3863.21,0.70718
3840.07,0.70443
3816.92,0.72047
3793.78,0.75014
3770.63,0.75375
3747.49,0.73362
3724.34,0.75888
3701.2,0.74694
3678.06,0.66216
3654.91,0.68858
3631.77,0.68006
3608.62,0.64651
3585.48,0.61951
3562.33,0.57724
3539.19,0.55127
3516.04,0.53414
3492.9,0.48922
3469.75,0.42602
3446.61,0.36649
3423.47,0.28958
3400.32,0.38222
3377.18,0.46572
3354.03,0.50074
3330.89,0.48582
3307.74,0.34762
3284.6,0.45083
3261.45,0.55308
3238.31,0.56412
3215.16,0.55127
3192.02,0.53724
3168.87,0.54178
3145.73,0.53072
3122.59,0.48994
3099.44,0.41531
3076.3,0.33357
3053.15,0.27020
3030.01,0.24018
3006.86,0.08294
2983.72,0.00120
2960.57,0.00060
2937.43,0.00089
2914.28,0.00043
2891.14,0.00063
2868,0.00062
2844.85,0.00171
2821.71,0.06120
2798.56,0.21548
2775.42,0.34370
2752.27,0.36174
2729.13,0.33771
2705.98,0.44209
2682.84,0.45940
2659.69,0.48076
2636.55,0.49932
2613.41,0.48486
2590.26,0.48502
2567.12,0.49415
2543.97,0.51496
2520.83,0.54199
2497.68,0.58931
2474.54,0.60931
2451.39,0.61603
2428.25,0.58622
2405.1,0.54391
2381.96,0.50210
2358.82,0.46534
2335.67,0.54955
2312.53,0.61465
2289.38,0.61717
2266.24,0.61543
2243.09,0.62263
2219.95,0.63152
2196.8,0.66800
2173.66,0.69383
2150.51,0.68578
2127.37,0.67872
2104.23,0.67156
2081.08,0.65755
2057.94,0.66044
2034.79,0.67812
2011.65,0.69575
1988.5,0.66270
1965.36,0.60814
1942.21,0.51755
1919.07,0.62965
1895.92,0.64699
1872.78,0.65344
1849.64,0.59462
1826.49,0.41544
1803.35,0.42628
1780.2,0.29889
1757.06,0.08603
1733.91,0.00052
1710.77,0.00065
1687.62,0.04944
1664.48,0.18325
1641.33,0.19668
1618.19,0.29967
1595.05,0.34810
1571.9,0.16387
1548.76,0.26552
1525.61,0.24866
1502.47,0.07698
1479.32,0.03889
1456.18,0.00080
1433.03,0.00081
1409.89,0.00058
1386.74,0.00079
1363.6,0.00225
1340.46,0.00089
1317.31,0.00060
1294.17,0.00060
1271.02,0.00067
1247.88,0.00068
1224.73,0.00100
1201.59,0.00206
1178.44,0.01195
1155.3,0.00618
1132.15,0.00040
1109.01,0.00061
1085.87,0.00058
1062.72,0.01429
1039.58,0.02305
1016.43,0.00169
993.287,0.00236
970.142,0.00102
946.998,0.00109
923.853,0.00473
900.709,0.02625
877.564,0.00519
854.42,0.03987
831.275,0.02995
808.131,0.16210
784.986,0.10255
761.842,0.10224
738.697,0.00570
715.552,0.02291
692.408,0.00080
669.263,0.01289
646.119,0.00089
622.974,0.00144
599.83,0.00600