File: 01_Data/PEVA/FTIR/IS/PEVA_0.10_IS_Trans_S_240819_R6.dpt
7496.91,0.93639
7473.76,0.93785
7450.62,0.95253
7427.47,0.93664
7404.33,0.94712
7381.18,0.94083
7358.04,0.94424
7334.89,0.92945
7311.75,0.92645
7288.61,0.91172
7265.46,0.91810
7242.32,0.91885
7219.17,0.92658
7196.03,0.92138
7172.88,0.92220
7149.74,0.93151
7126.59,0.93386
7103.45,0.92503
7080.3,0.92211
7057.16,0.92254
7034.02,0.92846
7010.87,0.92613
6987.73,0.92732
6964.58,0.93072
6941.44,0.92980
6918.29,0.93589
6895.15,0.92234
6872,0.92413
6848.86,0.92643
6825.71,0.93128
6802.57,0.93197
6779.43,0.93989
6756.28,0.94362
6733.14,0.92725
6709.99,0.93054
6686.85,0.93208
6663.7,0.93898
6640.56,0.94010
6617.41,0.94539
6594.27,0.94107
6571.12,0.93575
6547.98,0.93738
6524.84,0.93253
6501.69,0.94383
6478.55,0.93822
6455.4,0.92852
6432.26,0.94103
6409.11,0.93844
6385.97,0.93299
6362.82,0.94132
6339.68,0.94058
6316.53,0.93265
6293.39,0.93836
6270.24,0.93884
6247.1,0.93658
6223.96,0.94148
6200.81,0.93833
6177.67,0.93461
6154.52,0.93855
6131.38,0.93184
6108.23,0.93042
6085.09,0.93627
6061.94,0.93159
6038.8,0.93082
6015.65,0.93195
5992.51,0.92819
5969.37,0.92593
5946.22,0.92670
5923.08,0.92190
5899.93,0.91640
5876.79,0.91284
5853.64,0.88641
5830.5,0.86862
5807.35,0.84293
5784.21,0.79171
5761.06,0.82620
5737.92,0.87572
5714.78,0.88821
5691.63,0.87474
5668.49,0.85306
5645.34,0.87761
5622.2,0.89128
5599.05,0.89922
5575.91,0.89671
5552.76,0.89501
5529.62,0.89667
5506.47,0.88626
5483.33,0.89678
5460.19,0.88238
5437.04,0.88793
5413.9,0.87748
5390.75,0.90279
5367.61,0.90589
5344.46,0.87874
5321.32,0.91236
5298.17,0.90891
5275.03,0.91156
5251.88,0.90449
5228.74,0.90140
5205.6,0.89300
5182.45,0.90957
5159.31,0.90962
5136.16,0.91772
5113.02,0.91805
5089.87,0.91458
5066.73,0.91721
5043.58,0.92130
5020.44,0.91871
4997.29,0.91828
4974.15,0.91633
4951.01,0.91888
4927.86,0.92236
4904.72,0.91839
4881.57,0.91644
4858.43,0.92012
4835.28,0.92279
4812.14,0.92218
4788.99,0.92557
4765.85,0.92682
4742.7,0.92395
4719.56,0.92772
4696.42,0.92733
4673.27,0.92429
4650.13,0.92820
4626.98,0.92780
4603.84,0.92633
4580.69,0.92555
4557.55,0.92404
4534.4,0.92117
4511.26,0.91947
4488.11,0.91489
4464.97,0.90819
4441.83,0.90024
4418.68,0.88075
4395.54,0.83772
4372.39,0.78368
4349.25,0.67079
4326.1,0.40134
4302.96,0.72186
4279.81,0.71015
4256.67,0.53009
4233.52,0.67207
4210.38,0.64096
4187.24,0.58529
4164.09,0.59612
4140.95,0.60396
4117.8,0.61868
4094.66,0.62090
4071.51,0.69716
4048.37,0.72931
4025.22,0.74075
4002.08,0.78619
3978.93,0.78278
3955.79,0.79080
3932.65,0.76436
3909.5,0.77413
3886.36,0.75147
3863.21,0.74492
3840.07,0.72954
3816.92,0.74652
3793.78,0.80739
3770.63,0.79943
3747.49,0.74083
3724.34,0.75455
3701.2,0.77900
3678.06,0.76138
3654.91,0.77414
3631.77,0.75600
3608.62,0.70964
3585.48,0.81022
3562.33,0.84907
3539.19,0.88280
3516.04,0.89109
3492.9,0.88500
3469.75,0.88062
3446.61,0.86513
3423.47,0.86640
3400.32,0.86804
3377.18,0.86496
3354.03,0.86697
3330.89,0.87234
3307.74,0.87659
3284.6,0.87608
3261.45,0.87377
3238.31,0.87195
3215.16,0.86176
3192.02,0.84820
3168.87,0.83775
3145.73,0.82365
3122.59,0.79310
3099.44,0.72109
3076.3,0.61816
3053.15,0.54336
3030.01,0.42364
3006.86,0.32116
2983.72,0.14280
2960.57,0.00150
2937.43,0.00103
2914.28,0.00086
2891.14,0.00049
2868,0.00080
2844.85,0.00102
2821.71,0.04082
2798.56,0.17618
2775.42,0.35560
2752.27,0.44068
2729.13,0.45371
2705.98,0.50423
2682.84,0.48654
2659.69,0.46438
2636.55,0.47743
2613.41,0.56852
2590.26,0.64273
2567.12,0.71452
2543.97,0.75397
2520.83,0.77464
2497.68,0.81336
2474.54,0.82586
2451.39,0.84858
2428.25,0.84063
2405.1,0.83805
2381.96,0.75545
2358.82,0.39293
2335.67,0.44563
2312.53,0.61174
2289.38,0.78998
2266.24,0.82793
2243.09,0.84970
2219.95,0.86890
2196.8,0.87073
2173.66,0.87167
2150.51,0.85971
2127.37,0.88102
2104.23,0.88997
2081.08,0.88320
2057.94,0.86470
2034.79,0.84139
2011.65,0.83888
1988.5,0.87580
1965.36,0.88306
1942.21,0.86912
1919.07,0.85268
1895.92,0.84151
1872.78,0.88441
1849.64,0.88144
1826.49,0.86967
1803.35,0.87045
1780.2,0.85479
1757.06,0.83451
1733.91,0.76273
1710.77,0.77799
1687.62,0.82214
1664.48,0.83285
1641.33,0.80815
1618.19,0.81143
1595.05,0.81451
1571.9,0.78169
1548.76,0.77950
1525.61,0.71031
1502.47,0.65216
1479.32,0.27945
1456.18,0.01953
1433.03,0.30580
1409.89,0.70042
1386.74,0.64272
1363.6,0.40666
1340.46,0.57835
1317.31,0.60013
1294.17,0.59394
1271.02,0.66346
1247.88,0.71205
1224.73,0.76352
1201.59,0.76379
1178.44,0.73882
1155.3,0.76218
1132.15,0.77401
1109.01,0.75794
1085.87,0.73735
1062.72,0.75899
1039.58,0.76357
1016.43,0.72713
993.287,0.81940
970.142,0.79660
946.998,0.84964
923.853,0.84201
900.709,0.82375
877.564,0.86463
854.42,0.84835
831.275,0.82146
808.131,0.84137
784.986,0.77704
761.842,0.70946
738.697,0.50841
715.552,0.13323
692.408,0.76582
669.263,0.70598
646.119,0.81774
622.974,0.89907
599.83,0.94193