File: 01_Data/PEVA/FTIR/IS/PEVA_0.10_IS_S_240808_R5.dpt
7496.93,0.10093
7473.78,0.09944
7450.64,0.08128
7427.49,0.10040
7404.35,0.08348
7381.2,0.09597
7358.06,0.09296
7334.91,0.10744
7311.77,0.09950
7288.62,0.09808
7265.48,0.10908
7242.34,0.10016
7219.19,0.09681
7196.05,0.10154
7172.9,0.10103
7149.76,0.10067
7126.61,0.09757
7103.47,0.10060
7080.32,0.09667
7057.18,0.09252
7034.03,0.10099
7010.89,0.09751
6987.74,0.09499
6964.6,0.09723
6941.46,0.09622
6918.31,0.09301
6895.17,0.09547
6872.02,0.10285
6848.88,0.10103
6825.73,0.10386
6802.59,0.10334
6779.44,0.09225
6756.3,0.10491
6733.15,0.09530
6710.01,0.09475
6686.86,0.09570
6663.72,0.09292
6640.58,0.10000
6617.43,0.09443
6594.29,0.09493
6571.14,0.09747
6548,0.10041
6524.85,0.09589
6501.71,0.09726
6478.56,0.10094
6455.42,0.09745
6432.27,0.09458
6409.13,0.09742
6385.98,0.09712
6362.84,0.09852
6339.7,0.09848
6316.55,0.09927
6293.41,0.09452
6270.26,0.09288
6247.12,0.09612
6223.97,0.09893
6200.83,0.09764
6177.68,0.09532
6154.54,0.09551
6131.39,0.10264
6108.25,0.09823
6085.1,0.10069
6061.96,0.09637
6038.82,0.09579
6015.67,0.09973
5992.53,0.09453
5969.38,0.09429
5946.24,0.09620
5923.09,0.10004
5899.95,0.09489
5876.8,0.09609
5853.66,0.09739
5830.51,0.09114
5807.37,0.08902
5784.22,0.08622
5761.08,0.09064
5737.94,0.09321
5714.79,0.09370
5691.65,0.09399
5668.5,0.08987
5645.36,0.09250
5622.21,0.09325
5599.07,0.09648
5575.92,0.09696
5552.78,0.09383
5529.63,0.09714
5506.49,0.09659
5483.34,0.09693
5460.2,0.09960
5437.06,0.09477
5413.91,0.09584
5390.77,0.09929
5367.62,0.09640
5344.48,0.09666
5321.33,0.09822
5298.19,0.09819
5275.04,0.09753
5251.9,0.09779
5228.75,0.09771
5205.61,0.09847
5182.46,0.09854
5159.32,0.09670
5136.18,0.09841
5113.03,0.09879
5089.89,0.09865
5066.74,0.09977
5043.6,0.09936
5020.45,0.09898
4997.31,0.09877
4974.16,0.10037
4951.02,0.09882
4927.87,0.09928
4904.73,0.09944
4881.58,0.09874
4858.44,0.10027
4835.3,0.10009
4812.15,0.09798
4789.01,0.10135
4765.86,0.10038
4742.72,0.09906
4719.57,0.10081
4696.43,0.10081
4673.28,0.09849
4650.14,0.10273
4626.99,0.10058
4603.85,0.09935
4580.7,0.10268
4557.56,0.10059
4534.42,0.09838
4511.27,0.10108
4488.13,0.09851
4464.98,0.09828
4441.84,0.09933
4418.69,0.09652
4395.55,0.09161
4372.4,0.09019
4349.26,0.08087
4326.11,0.06581
4302.97,0.08580
4279.82,0.08283
4256.68,0.07229
4233.54,0.08218
4210.39,0.07851
4187.25,0.07699
4164.1,0.07779
4140.96,0.07533
4117.81,0.07910
4094.67,0.07952
4071.52,0.08204
4048.38,0.08566
4025.23,0.08730
4002.09,0.08793
3978.94,0.09097
3955.8,0.09047
3932.66,0.08633
3909.51,0.09024
3886.37,0.09013
3863.22,0.08799
3840.08,0.09201
3816.93,0.09131
3793.79,0.09049
3770.64,0.09531
3747.5,0.09356
3724.35,0.09178
3701.21,0.09470
3678.06,0.09185
3654.92,0.08842
3631.78,0.09199
3608.63,0.08577
3585.49,0.09100
3562.34,0.09654
3539.2,0.09563
3516.05,0.09401
3492.91,0.09803
3469.76,0.09554
3446.62,0.09249
3423.47,0.09597
3400.33,0.09384
3377.18,0.09148
3354.04,0.09443
3330.9,0.09479
3307.75,0.09137
3284.61,0.09448
3261.46,0.09543
3238.32,0.09168
3215.17,0.09083
3192.03,0.09234
3168.88,0.09085
3145.74,0.08686
3122.59,0.08482
3099.45,0.08084
3076.3,0.07361
3053.16,0.06904
3030.02,0.06211
3006.87,0.05781
2983.73,0.05133
2960.58,0.04694
2937.44,0.03837
2914.29,0.08823
2891.15,0.06869
2868,0.05897
2844.86,0.08391
2821.71,0.06831
2798.57,0.06677
2775.42,0.07157
2752.28,0.07437
2729.14,0.07404
2705.99,0.07514
2682.85,0.07345
2659.7,0.07289
2636.56,0.07397
2613.41,0.07812
2590.27,0.08153
2567.12,0.08846
2543.98,0.09101
2520.83,0.09048
2497.69,0.09370
2474.55,0.09747
2451.4,0.09686
2428.26,0.09530
2405.11,0.09790
2381.97,0.09664
2358.82,0.09184
2335.68,0.09005
2312.53,0.09270
2289.39,0.09265
2266.24,0.09782
2243.1,0.09760
2219.95,0.09607
2196.81,0.09941
2173.67,0.09921
2150.52,0.09499
2127.38,0.10012
2104.23,0.10094
2081.09,0.09654
2057.94,0.09864
2034.8,0.09632
2011.65,0.09303
1988.51,0.09976
1965.36,0.10066
1942.22,0.09681
1919.07,0.09829
1895.93,0.09647
1872.79,0.09745
1849.64,0.10016
1826.5,0.10055
1803.35,0.09631
1780.21,0.09738
1757.06,0.09565
1733.92,0.09126
1710.77,0.09246
1687.63,0.09802
1664.48,0.09326
1641.34,0.09102
1618.19,0.09560
1595.05,0.09095
1571.91,0.08843
1548.76,0.09253
1525.62,0.08734
1502.47,0.07646
1479.33,0.05742
1456.18,0.06079
1433.04,0.06590
1409.89,0.08215
1386.75,0.07430
1363.6,0.07109
1340.46,0.07438
1317.31,0.07022
1294.17,0.08273
1271.03,0.07968
1247.88,0.07709
1224.74,0.10001
1201.59,0.08573
1178.45,0.07721
1155.3,0.10293
1132.16,0.08201
1109.01,0.08131
1085.87,0.10550
1062.72,0.07895
1039.58,0.08792
1016.43,0.11265
993.29,0.07654
970.145,0.09338
947,0.11771
923.856,0.06824
900.711,0.10015
877.567,0.11712
854.422,0.06356
831.277,0.10487
808.133,0.11504
784.988,0.05432
761.844,0.08947
738.699,0.08553
715.554,0.06971
692.41,0.12567
669.265,0.06022
646.12,0.08575
622.976,0.14819
599.831,0.06135