File: 01_Data/PEVA/FTIR/IS/PEVA_0.10_IS_T_240808_R10.dpt
7496.93,0.03896
7473.78,0.04014
7450.64,0.03160
7427.49,0.03146
7404.35,0.03566
7381.2,0.04722
7358.06,0.04055
7334.91,0.03464
7311.77,0.02861
7288.62,0.02947
7265.48,0.03943
7242.34,0.03346
7219.19,0.03505
7196.05,0.03272
7172.9,0.03493
7149.76,0.03205
7126.61,0.03377
7103.47,0.03586
7080.32,0.03587
7057.18,0.04396
7034.03,0.02630
7010.89,0.03014
6987.74,0.03433
6964.6,0.03530
6941.46,0.03116
6918.31,0.03806
6895.17,0.03307
6872.02,0.03644
6848.88,0.02960
6825.73,0.03246
6802.59,0.03408
6779.44,0.02190
6756.3,0.03147
6733.15,0.03108
6710.01,0.03285
6686.86,0.02708
6663.72,0.03138
6640.58,0.02906
6617.43,0.03062
6594.29,0.03305
6571.14,0.03014
6548,0.03348
6524.85,0.03367
6501.71,0.03527
6478.56,0.02845
6455.42,0.03402
6432.27,0.02808
6409.13,0.03052
6385.98,0.03557
6362.84,0.02964
6339.7,0.03148
6316.55,0.03302
6293.41,0.03580
6270.26,0.02860
6247.12,0.02686
6223.97,0.03367
6200.83,0.03087
6177.68,0.02945
6154.54,0.03052
6131.39,0.02954
6108.25,0.02523
6085.1,0.03390
6061.96,0.03027
6038.82,0.03090
6015.67,0.03099
5992.53,0.03122
5969.38,0.03113
5946.24,0.03035
5923.09,0.03037
5899.95,0.02903
5876.8,0.03437
5853.66,0.03152
5830.51,0.03184
5807.37,0.02869
5784.22,0.02910
5761.08,0.02922
5737.94,0.03015
5714.79,0.02899
5691.65,0.02958
5668.5,0.02990
5645.36,0.03086
5622.21,0.03050
5599.07,0.03032
5575.92,0.03100
5552.78,0.02884
5529.63,0.02867
5506.49,0.02916
5483.34,0.02917
5460.2,0.02964
5437.06,0.02828
5413.91,0.02885
5390.77,0.03372
5367.62,0.03037
5344.48,0.02930
5321.33,0.03013
5298.19,0.02972
5275.04,0.03117
5251.9,0.02887
5228.75,0.03057
5205.61,0.02999
5182.46,0.02959
5159.32,0.02968
5136.18,0.02984
5113.03,0.03049
5089.89,0.03049
5066.74,0.02931
5043.6,0.02967
5020.45,0.02906
4997.31,0.03089
4974.16,0.03005
4951.02,0.03119
4927.87,0.02950
4904.73,0.02840
4881.58,0.02904
4858.44,0.03169
4835.3,0.02926
4812.15,0.02992
4789.01,0.02943
4765.86,0.03019
4742.72,0.02924
4719.57,0.02969
4696.43,0.02951
4673.28,0.03084
4650.14,0.02999
4626.99,0.02951
4603.85,0.02967
4580.7,0.02976
4557.56,0.02953
4534.42,0.02965
4511.27,0.02931
4488.13,0.03006
4464.98,0.03006
4441.84,0.03057
4418.69,0.02956
4395.55,0.02955
4372.4,0.02924
4349.26,0.02898
4326.11,0.02985
4302.97,0.03034
4279.82,0.02949
4256.68,0.02970
4233.54,0.02915
4210.39,0.02923
4187.25,0.02964
4164.1,0.03051
4140.96,0.03007
4117.81,0.02987
4094.67,0.02919
4071.52,0.03028
4048.38,0.02966
4025.23,0.03014
4002.09,0.02939
3978.94,0.02890
3955.8,0.02980
3932.66,0.02971
3909.51,0.02911
3886.37,0.03059
3863.22,0.02893
3840.08,0.02934
3816.93,0.02912
3793.79,0.02919
3770.64,0.03010
3747.5,0.02932
3724.35,0.03014
3701.21,0.03021
3678.06,0.02854
3654.92,0.02869
3631.78,0.02925
3608.63,0.02751
3585.49,0.02670
3562.34,0.02657
3539.2,0.02669
3516.05,0.02635
3492.91,0.02640
3469.76,0.02680
3446.62,0.02639
3423.47,0.02645
3400.33,0.02558
3377.18,0.02573
3354.04,0.02536
3330.9,0.02556
3307.75,0.02663
3284.61,0.02582
3261.46,0.02523
3238.32,0.02745
3215.17,0.02569
3192.03,0.02684
3168.88,0.02680
3145.74,0.02654
3122.59,0.02668
3099.45,0.02728
3076.3,0.02653
3053.16,0.02669
3030.02,0.02655
3006.87,0.02681
2983.73,0.02571
2960.58,0.02603
2937.44,0.02574
2914.29,0.02619
2891.15,0.02546
2868,0.02601
2844.86,0.02658
2821.71,0.02690
2798.57,0.02673
2775.42,0.02680
2752.28,0.02709
2729.14,0.02697
2705.99,0.02707
2682.85,0.02679
2659.7,0.02684
2636.56,0.02675
2613.41,0.02661
2590.27,0.02666
2567.12,0.02707
2543.98,0.02703
2520.83,0.02695
2497.69,0.02709
2474.55,0.02657
2451.4,0.02633
2428.26,0.02688
2405.11,0.02664
2381.97,0.02655
2358.82,0.02716
2335.68,0.02667
2312.53,0.02618
2289.39,0.02626
2266.24,0.02627
2243.1,0.02629
2219.95,0.02633
2196.81,0.02627
2173.67,0.02568
2150.52,0.02602
2127.38,0.02561
2104.23,0.02606
2081.09,0.02559
2057.94,0.02571
2034.8,0.02563
2011.65,0.02540
1988.51,0.02567
1965.36,0.02545
1942.22,0.02568
1919.07,0.02542
1895.93,0.02475
1872.79,0.02501
1849.64,0.02494
1826.5,0.02410
1803.35,0.02425
1780.21,0.02316
1757.06,0.02166
1733.92,0.02370
1710.77,0.02425
1687.63,0.02218
1664.48,0.02195
1641.34,0.02199
1618.19,0.02228
1595.05,0.02241
1571.91,0.02191
1548.76,0.02153
1525.62,0.02228
1502.47,0.02181
1479.33,0.02130
1456.18,0.02165
1433.04,0.02191
1409.89,0.02095
1386.75,0.02030
1363.6,0.02050
1340.46,0.01997
1317.31,0.01998
1294.17,0.02018
1271.03,0.02136
1247.88,0.02176
1224.74,0.02145
1201.59,0.02079
1178.45,0.02030
1155.3,0.01928
1132.16,0.02034
1109.01,0.02108
1085.87,0.02147
1062.72,0.02381
1039.58,0.02353
1016.43,0.02265
993.29,0.02372
970.145,0.02345
947,0.02304
923.856,0.02189
900.711,0.02125
877.567,0.02124
854.422,0.02152
831.277,0.02150
808.133,0.02116
784.988,0.02074
761.844,0.01991
738.699,0.01972
715.554,0.01832
692.41,0.01881
669.265,0.01906
646.12,0.01833
622.976,0.01701
599.831,0.01942