File: 01_Data/PEVA/FTIR/IS/PEVA_0.26_IS_S_240809_R6.dpt
7497.2,0.10646
7474.05,0.10085
7450.91,0.10467
7427.76,0.10668
7404.62,0.09591
7381.47,0.10098
7358.33,0.10237
7335.18,0.09828
7312.04,0.10331
7288.89,0.10087
7265.75,0.09403
7242.6,0.10205
7219.45,0.10842
7196.31,0.10124
7173.16,0.09651
7150.02,0.09302
7126.87,0.10383
7103.73,0.10295
7080.58,0.10339
7057.44,0.09915
7034.29,0.09610
7011.15,0.09675
6988,0.09831
6964.85,0.10786
6941.71,0.10513
6918.56,0.09953
6895.42,0.10206
6872.27,0.10928
6849.13,0.11218
6825.98,0.10023
6802.84,0.10658
6779.69,0.10614
6756.55,0.09939
6733.4,0.10331
6710.25,0.10431
6687.11,0.10224
6663.96,0.10251
6640.82,0.09967
6617.67,0.10177
6594.53,0.10056
6571.38,0.09839
6548.24,0.09941
6525.09,0.10448
6501.95,0.11001
6478.8,0.10220
6455.65,0.10468
6432.51,0.09769
6409.36,0.09850
6386.22,0.10423
6363.07,0.10652
6339.93,0.10130
6316.78,0.10396
6293.64,0.10122
6270.49,0.09991
6247.34,0.10503
6224.2,0.09970
6201.05,0.10476
6177.91,0.10354
6154.76,0.10485
6131.62,0.10230
6108.47,0.10215
6085.33,0.10227
6062.18,0.09900
6039.04,0.09841
6015.89,0.09723
5992.74,0.09829
5969.6,0.09665
5946.45,0.10036
5923.31,0.09557
5900.16,0.09404
5877.02,0.08969
5853.87,0.08680
5830.73,0.08434
5807.58,0.08731
5784.44,0.09219
5761.29,0.09274
5738.14,0.09534
5715,0.09224
5691.85,0.09473
5668.71,0.09525
5645.56,0.09685
5622.42,0.09618
5599.27,0.09987
5576.13,0.09919
5552.98,0.09806
5529.84,0.09639
5506.69,0.09880
5483.54,0.09904
5460.4,0.09971
5437.25,0.09971
5414.11,0.10010
5390.96,0.09868
5367.82,0.09965
5344.67,0.09910
5321.53,0.10208
5298.38,0.10210
5275.24,0.10179
5252.09,0.10209
5228.94,0.10123
5205.8,0.10241
5182.65,0.10120
5159.51,0.10048
5136.36,0.10368
5113.22,0.10248
5090.07,0.10118
5066.93,0.10044
5043.78,0.10297
5020.64,0.10090
4997.49,0.10205
4974.34,0.10233
4951.2,0.10201
4928.05,0.10191
4904.91,0.10384
4881.76,0.10303
4858.62,0.10296
4835.47,0.10149
4812.33,0.10292
4789.18,0.10203
4766.04,0.10420
4742.89,0.10224
4719.74,0.10214
4696.6,0.10017
4673.45,0.10051
4650.31,0.09998
4627.16,0.10018
4604.02,0.10150
4580.87,0.10182
4557.73,0.10250
4534.58,0.10106
4511.44,0.10125
4488.29,0.09855
4465.14,0.09762
4442,0.09357
4418.85,0.08545
4395.71,0.08026
4372.56,0.07651
4349.42,0.07049
4326.27,0.06866
4303.13,0.07293
4279.98,0.07367
4256.84,0.07438
4233.69,0.07323
4210.54,0.07349
4187.4,0.07469
4164.25,0.07490
4141.11,0.07859
4117.96,0.07971
4094.82,0.07689
4071.67,0.07713
4048.53,0.08206
4025.38,0.08236
4002.24,0.08478
3979.09,0.08634
3955.94,0.08743
3932.8,0.08770
3909.65,0.08756
3886.51,0.08820
3863.36,0.08868
3840.22,0.08889
3817.07,0.08974
3793.93,0.09134
3770.78,0.09176
3747.64,0.09243
3724.49,0.09347
3701.34,0.09186
3678.2,0.08415
3655.05,0.08574
3631.91,0.08558
3608.76,0.08298
3585.62,0.08186
3562.47,0.07693
3539.33,0.07563
3516.18,0.07440
3493.04,0.07202
3469.89,0.06972
3446.74,0.06706
3423.6,0.06414
3400.45,0.06711
3377.31,0.07071
3354.16,0.07295
3331.02,0.07137
3307.87,0.06575
3284.73,0.07021
3261.58,0.07491
3238.44,0.07567
3215.29,0.07492
3192.14,0.07500
3169,0.07474
3145.85,0.07358
3122.71,0.07190
3099.56,0.06829
3076.42,0.06492
3053.27,0.06308
3030.13,0.06123
3006.98,0.05864
2983.84,0.05665
2960.69,0.05881
2937.54,0.05922
2914.4,0.06241
2891.25,0.06203
2868.11,0.06197
2844.96,0.06328
2821.82,0.06271
2798.67,0.06413
2775.53,0.06811
2752.38,0.06827
2729.24,0.06723
2706.09,0.07135
2682.94,0.07235
2659.8,0.07304
2636.65,0.07401
2613.51,0.07321
2590.36,0.07320
2567.22,0.07358
2544.07,0.07476
2520.93,0.07615
2497.78,0.07841
2474.64,0.07977
2451.49,0.08013
2428.34,0.07842
2405.2,0.07588
2382.05,0.07385
2358.91,0.07583
2335.76,0.08042
2312.62,0.08220
2289.47,0.08075
2266.33,0.08017
2243.18,0.08019
2220.04,0.08087
2196.89,0.08286
2173.74,0.08514
2150.6,0.08391
2127.45,0.08365
2104.31,0.08262
2081.16,0.08169
2058.02,0.08216
2034.87,0.08334
2011.73,0.08417
1988.58,0.08156
1965.44,0.07824
1942.29,0.07280
1919.14,0.07919
1896,0.08008
1872.85,0.08038
1849.71,0.07599
1826.56,0.06635
1803.42,0.06618
1780.27,0.06097
1757.13,0.05499
1733.98,0.04978
1710.84,0.06949
1687.69,0.06122
1664.54,0.06079
1641.4,0.06018
1618.25,0.06226
1595.11,0.06395
1571.96,0.05833
1548.82,0.05997
1525.67,0.05910
1502.53,0.05638
1479.38,0.05470
1456.24,0.05650
1433.09,0.05553
1409.94,0.05594
1386.8,0.05448
1363.65,0.05467
1340.51,0.05228
1317.36,0.05222
1294.22,0.04753
1271.07,0.06493
1247.93,0.07166
1224.78,0.06794
1201.64,0.06260
1178.49,0.06054
1155.34,0.05825
1132.2,0.05374
1109.05,0.06431
1085.91,0.06669
1062.76,0.06391
1039.62,0.06176
1016.47,0.06511
993.326,0.06084
970.18,0.06116
947.035,0.06381
923.89,0.06259
900.744,0.06173
877.599,0.06124
854.453,0.06133
831.308,0.06193
808.162,0.06291
785.017,0.06009
761.871,0.06020
738.726,0.05060
715.58,0.06033
692.435,0.05795
669.29,0.05854
646.144,0.05520
622.999,0.06069
599.853,0.06509