File: 01_Data/PEVA/FTIR/IS/PEVA_0.18_IS_T_240809_R5.dpt
7497.33,0.04516
7474.19,0.02769
7451.04,0.05398
7427.9,0.04717
7404.75,0.02927
7381.6,0.03624
7358.46,0.02449
7335.31,0.02887
7312.17,0.02515
7289.02,0.03273
7265.87,0.03690
7242.73,0.03761
7219.58,0.03547
7196.44,0.04701
7173.29,0.03238
7150.15,0.03245
7127,0.03036
7103.85,0.02903
7080.71,0.03879
7057.56,0.03362
7034.42,0.04182
7011.27,0.03729
6988.12,0.03078
6964.98,0.02975
6941.83,0.04178
6918.69,0.03971
6895.54,0.02937
6872.39,0.03641
6849.25,0.02916
6826.1,0.03319
6802.96,0.04518
6779.81,0.02596
6756.67,0.03013
6733.52,0.01952
6710.37,0.03703
6687.23,0.03760
6664.08,0.03347
6640.94,0.03132
6617.79,0.02972
6594.64,0.03504
6571.5,0.03152
6548.35,0.03462
6525.21,0.02865
6502.06,0.02920
6478.92,0.03037
6455.77,0.03456
6432.62,0.03819
6409.48,0.03284
6386.33,0.03230
6363.19,0.03474
6340.04,0.02753
6316.89,0.02916
6293.75,0.02978
6270.6,0.02946
6247.46,0.02920
6224.31,0.02986
6201.16,0.03244
6178.02,0.03194
6154.87,0.03022
6131.73,0.03071
6108.58,0.02976
6085.44,0.03154
6062.29,0.03274
6039.14,0.02940
6016,0.03021
5992.85,0.02877
5969.71,0.03136
5946.56,0.03063
5923.41,0.03183
5900.27,0.02967
5877.12,0.03031
5853.98,0.02952
5830.83,0.03149
5807.68,0.02915
5784.54,0.02990
5761.39,0.02902
5738.25,0.03131
5715.1,0.03007
5691.96,0.03055
5668.81,0.02998
5645.66,0.02813
5622.52,0.02979
5599.37,0.03360
5576.23,0.02925
5553.08,0.03175
5529.93,0.03064
5506.79,0.03056
5483.64,0.03237
5460.5,0.03223
5437.35,0.03113
5414.21,0.02907
5391.06,0.03394
5367.91,0.03144
5344.77,0.03119
5321.62,0.03007
5298.48,0.03065
5275.33,0.02916
5252.18,0.03074
5229.04,0.03005
5205.89,0.03025
5182.75,0.03215
5159.6,0.02980
5136.45,0.02912
5113.31,0.02974
5090.16,0.03025
5067.02,0.03150
5043.87,0.03050
5020.73,0.03068
4997.58,0.03140
4974.43,0.03090
4951.29,0.03043
4928.14,0.03086
4905,0.03000
4881.85,0.03005
4858.7,0.02982
4835.56,0.03104
4812.41,0.02987
4789.27,0.03051
4766.12,0.02939
4742.97,0.03100
4719.83,0.03023
4696.68,0.03108
4673.54,0.03044
4650.39,0.02920
4627.25,0.03054
4604.1,0.03050
4580.95,0.03010
4557.81,0.03081
4534.66,0.03056
4511.52,0.02924
4488.37,0.03074
4465.22,0.02880
4442.08,0.02949
4418.93,0.03050
4395.79,0.03150
4372.64,0.02952
4349.49,0.03047
4326.35,0.03118
4303.2,0.03094
4280.06,0.02990
4256.91,0.03055
4233.77,0.03046
4210.62,0.02910
4187.47,0.03025
4164.33,0.03005
4141.18,0.03018
4118.04,0.03012
4094.89,0.02955
4071.74,0.03046
4048.6,0.02951
4025.45,0.03113
4002.31,0.02946
3979.16,0.03052
3956.02,0.03042
3932.87,0.03001
3909.72,0.03119
3886.58,0.03055
3863.43,0.03010
3840.29,0.03035
3817.14,0.03090
3793.99,0.03036
3770.85,0.03036
3747.7,0.02958
3724.56,0.03063
3701.41,0.02924
3678.26,0.03013
3655.12,0.02841
3631.97,0.02836
3608.83,0.02817
3585.68,0.02771
3562.54,0.02676
3539.39,0.02738
3516.24,0.02724
3493.1,0.02658
3469.95,0.02642
3446.81,0.02598
3423.66,0.02711
3400.51,0.02645
3377.37,0.02706
3354.22,0.02609
3331.08,0.02628
3307.93,0.02587
3284.78,0.02663
3261.64,0.02609
3238.49,0.02752
3215.35,0.02674
3192.2,0.02708
3169.06,0.02644
3145.91,0.02689
3122.76,0.02602
3099.62,0.02634
3076.47,0.02735
3053.33,0.02695
3030.18,0.02679
3007.03,0.02673
2983.89,0.02593
2960.74,0.02564
2937.6,0.02532
2914.45,0.02610
2891.31,0.02675
2868.16,0.02664
2845.01,0.02689
2821.87,0.02723
2798.72,0.02781
2775.58,0.02751
2752.43,0.02695
2729.28,0.02743
2706.14,0.02724
2682.99,0.02729
2659.85,0.02744
2636.7,0.02733
2613.55,0.02721
2590.41,0.02729
2567.26,0.02724
2544.12,0.02714
2520.97,0.02707
2497.83,0.02750
2474.68,0.02711
2451.53,0.02715
2428.39,0.02712
2405.24,0.02686
2382.1,0.02717
2358.95,0.02728
2335.8,0.02724
2312.66,0.02668
2289.51,0.02640
2266.37,0.02665
2243.22,0.02653
2220.07,0.02656
2196.93,0.02614
2173.78,0.02615
2150.64,0.02637
2127.49,0.02634
2104.35,0.02583
2081.2,0.02590
2058.05,0.02593
2034.91,0.02613
2011.76,0.02599
1988.62,0.02560
1965.47,0.02583
1942.32,0.02602
1919.18,0.02526
1896.03,0.02556
1872.89,0.02528
1849.74,0.02484
1826.6,0.02482
1803.45,0.02395
1780.3,0.02369
1757.16,0.02166
1734.01,0.02289
1710.87,0.02402
1687.72,0.02305
1664.57,0.02198
1641.43,0.02213
1618.28,0.02238
1595.14,0.02264
1571.99,0.02186
1548.84,0.02195
1525.7,0.02214
1502.55,0.02232
1479.41,0.02225
1456.26,0.02155
1433.12,0.02163
1409.97,0.02111
1386.82,0.02082
1363.68,0.02075
1340.53,0.02057
1317.39,0.01965
1294.24,0.02037
1271.09,0.02173
1247.95,0.02247
1224.8,0.02206
1201.66,0.02148
1178.51,0.02073
1155.36,0.02028
1132.22,0.02078
1109.07,0.02219
1085.93,0.02180
1062.78,0.02370
1039.64,0.02307
1016.49,0.02306
993.344,0.02442
970.198,0.02390
947.052,0.02271
923.906,0.02241
900.76,0.02222
877.614,0.02162
854.468,0.02265
831.323,0.02074
808.177,0.02129
785.031,0.02114
761.885,0.02076
738.739,0.02054
715.593,0.02017
692.447,0.01957
669.301,0.01888
646.156,0.01844
623.01,0.01814
599.864,0.02024