File: 01_Data/PEVA/FTIR/IS/PEVA_0.10_IS_S_240808_R7.dpt
7496.93,0.10047
7473.78,0.10108
7450.64,0.08387
7427.49,0.08876
7404.35,0.09277
7381.2,0.10553
7358.06,0.10293
7334.91,0.11099
7311.77,0.09894
7288.62,0.10613
7265.48,0.10016
7242.34,0.10107
7219.19,0.10229
7196.05,0.09303
7172.9,0.09651
7149.76,0.09572
7126.61,0.09575
7103.47,0.09074
7080.32,0.09695
7057.18,0.09791
7034.03,0.09248
7010.89,0.10157
6987.74,0.09970
6964.6,0.10345
6941.46,0.09505
6918.31,0.09687
6895.17,0.10378
6872.02,0.09722
6848.88,0.08935
6825.73,0.09701
6802.59,0.10029
6779.44,0.09881
6756.3,0.10260
6733.15,0.10338
6710.01,0.09077
6686.86,0.09228
6663.72,0.09761
6640.58,0.09804
6617.43,0.09406
6594.29,0.09523
6571.14,0.10438
6548,0.09857
6524.85,0.09882
6501.71,0.09902
6478.56,0.09878
6455.42,0.09576
6432.27,0.09777
6409.13,0.09626
6385.98,0.09646
6362.84,0.10202
6339.7,0.09923
6316.55,0.09779
6293.41,0.09927
6270.26,0.09872
6247.12,0.09551
6223.97,0.09738
6200.83,0.10011
6177.68,0.09797
6154.54,0.09808
6131.39,0.09997
6108.25,0.09701
6085.1,0.09634
6061.96,0.09513
6038.82,0.09672
6015.67,0.09771
5992.53,0.10178
5969.38,0.09582
5946.24,0.09875
5923.09,0.09288
5899.95,0.09474
5876.8,0.09681
5853.66,0.09021
5830.51,0.08908
5807.37,0.09030
5784.22,0.08870
5761.08,0.08748
5737.94,0.09137
5714.79,0.09409
5691.65,0.09255
5668.5,0.09043
5645.36,0.09362
5622.21,0.09322
5599.07,0.09611
5575.92,0.09550
5552.78,0.09540
5529.63,0.09674
5506.49,0.09445
5483.34,0.09574
5460.2,0.09501
5437.06,0.09525
5413.91,0.09750
5390.77,0.09442
5367.62,0.09767
5344.48,0.09713
5321.33,0.09910
5298.19,0.09752
5275.04,0.09543
5251.9,0.09663
5228.75,0.09685
5205.61,0.09849
5182.46,0.09692
5159.32,0.09705
5136.18,0.09782
5113.03,0.09712
5089.89,0.09915
5066.74,0.09881
5043.6,0.09853
5020.45,0.09771
4997.31,0.09805
4974.16,0.09797
4951.02,0.09906
4927.87,0.09735
4904.73,0.09833
4881.58,0.09852
4858.44,0.10036
4835.3,0.09858
4812.15,0.09915
4789.01,0.09993
4765.86,0.09857
4742.72,0.09909
4719.57,0.09947
4696.43,0.10036
4673.28,0.09995
4650.14,0.09908
4626.99,0.09960
4603.85,0.09843
4580.7,0.09972
4557.56,0.10021
4534.42,0.09898
4511.27,0.09896
4488.13,0.09900
4464.98,0.09735
4441.84,0.09775
4418.69,0.09588
4395.55,0.09267
4372.4,0.08842
4349.26,0.08038
4326.11,0.06641
4302.97,0.08363
4279.82,0.08294
4256.68,0.07205
4233.54,0.08073
4210.39,0.07878
4187.25,0.07438
4164.1,0.07563
4140.96,0.07641
4117.81,0.07686
4094.67,0.07792
4071.52,0.08224
4048.38,0.08358
4025.23,0.08696
4002.09,0.08879
3978.94,0.08806
3955.8,0.09044
3932.66,0.08865
3909.51,0.08844
3886.37,0.08948
3863.22,0.08889
3840.08,0.09040
3816.93,0.09081
3793.79,0.09115
3770.64,0.09258
3747.5,0.09384
3724.35,0.09234
3701.21,0.09209
3678.06,0.09248
3654.92,0.08875
3631.78,0.08973
3608.63,0.08634
3585.49,0.09239
3562.34,0.09574
3539.2,0.09591
3516.05,0.09343
3492.91,0.09669
3469.76,0.09497
3446.62,0.09167
3423.47,0.09450
3400.33,0.09319
3377.18,0.09046
3354.04,0.09305
3330.9,0.09391
3307.75,0.09137
3284.61,0.09313
3261.46,0.09500
3238.32,0.09074
3215.17,0.09045
3192.03,0.09128
3168.88,0.08889
3145.74,0.08500
3122.59,0.08448
3099.45,0.07976
3076.3,0.07303
3053.16,0.06775
3030.02,0.06105
3006.87,0.05681
2983.73,0.05104
2960.58,0.04670
2937.44,0.03892
2914.29,0.08783
2891.15,0.06743
2868,0.05790
2844.86,0.08376
2821.71,0.06789
2798.57,0.06633
2775.42,0.07024
2752.28,0.07259
2729.14,0.07178
2705.99,0.07329
2682.85,0.07310
2659.7,0.07337
2636.56,0.07294
2613.41,0.07561
2590.27,0.08235
2567.12,0.08845
2543.98,0.08861
2520.83,0.09012
2497.69,0.09519
2474.55,0.09418
2451.4,0.09531
2428.26,0.09681
2405.11,0.09531
2381.97,0.09377
2358.82,0.09436
2335.68,0.08867
2312.53,0.08976
2289.39,0.09546
2266.24,0.09530
2243.1,0.09455
2219.95,0.09897
2196.81,0.09661
2173.67,0.09634
2150.52,0.09818
2127.38,0.09722
2104.23,0.09794
2081.09,0.10023
2057.94,0.09460
2034.8,0.09433
2011.65,0.09681
1988.51,0.09493
1965.36,0.09949
1942.22,0.10015
1919.07,0.09264
1895.93,0.09652
1872.79,0.09990
1849.64,0.09406
1826.5,0.10269
1803.35,0.09782
1780.21,0.09121
1757.06,0.09967
1733.92,0.09148
1710.77,0.08750
1687.63,0.10290
1664.48,0.09064
1641.34,0.08634
1618.19,0.10080
1595.05,0.08705
1571.91,0.08394
1548.76,0.09822
1525.62,0.08570
1502.47,0.06947
1479.33,0.05580
1456.18,0.06030
1433.04,0.06399
1409.89,0.07449
1386.75,0.07189
1363.6,0.07310
1340.46,0.06716
1317.31,0.07080
1294.17,0.08570
1271.03,0.07131
1247.88,0.08207
1224.74,0.10162
1201.59,0.07635
1178.45,0.08462
1155.3,0.10175
1132.16,0.07418
1109.01,0.08939
1085.87,0.10165
1062.72,0.07469
1039.58,0.09587
1016.43,0.10459
993.29,0.07464
970.145,0.10080
947,0.10764
923.856,0.07054
900.711,0.10529
877.567,0.10633
854.422,0.06724
831.277,0.10752
808.133,0.10527
784.988,0.05857
761.844,0.09232
738.699,0.08254
715.554,0.06724
692.41,0.11759
669.265,0.06241
646.12,0.09260
622.976,0.14171
599.831,0.06547