File: 01_Data/PEVA/FTIR/IS/PEVA_0.26_IS_Trans_S_240819_R5.dpt
7496.91,0.92674
7473.76,0.95141
7450.62,0.91740
7427.47,0.91895
7404.33,0.91204
7381.18,0.90643
7358.04,0.91460
7334.89,0.90154
7311.75,0.90586
7288.61,0.90540
7265.46,0.90839
7242.32,0.89474
7219.17,0.89533
7196.03,0.89952
7172.88,0.91505
7149.74,0.90259
7126.59,0.89847
7103.45,0.89646
7080.3,0.91557
7057.16,0.90777
7034.02,0.90320
7010.87,0.91468
6987.73,0.90801
6964.58,0.90722
6941.44,0.90883
6918.29,0.90209
6895.15,0.90803
6872,0.90051
6848.86,0.91275
6825.71,0.91701
6802.57,0.91526
6779.43,0.91909
6756.28,0.92433
6733.14,0.91931
6709.99,0.91448
6686.85,0.92364
6663.7,0.91714
6640.56,0.92897
6617.41,0.91922
6594.27,0.92168
6571.12,0.91999
6547.98,0.92051
6524.84,0.92539
6501.69,0.92805
6478.55,0.91649
6455.4,0.92140
6432.26,0.92418
6409.11,0.92723
6385.97,0.92609
6362.82,0.92475
6339.68,0.92877
6316.53,0.92161
6293.39,0.92408
6270.24,0.92004
6247.1,0.92376
6223.96,0.92134
6200.81,0.91701
6177.67,0.91859
6154.52,0.92149
6131.38,0.92140
6108.23,0.91354
6085.09,0.90915
6061.94,0.89752
6038.8,0.88340
6015.65,0.87125
5992.51,0.88970
5969.37,0.89599
5946.22,0.88808
5923.08,0.86363
5899.93,0.84013
5876.79,0.80593
5853.64,0.76605
5830.5,0.72025
5807.35,0.74933
5784.21,0.79761
5761.06,0.81380
5737.92,0.80879
5714.78,0.80931
5691.63,0.81435
5668.49,0.83341
5645.34,0.84010
5622.2,0.85150
5599.05,0.85657
5575.91,0.86538
5552.76,0.86655
5529.62,0.86868
5506.47,0.86657
5483.33,0.87139
5460.19,0.85780
5437.04,0.86387
5413.9,0.85627
5390.75,0.87265
5367.61,0.88323
5344.46,0.86161
5321.32,0.89141
5298.17,0.88928
5275.03,0.89198
5251.88,0.88056
5228.74,0.88181
5205.6,0.87501
5182.45,0.88903
5159.31,0.89021
5136.16,0.89237
5113.02,0.89370
5089.87,0.89406
5066.73,0.89721
5043.58,0.89746
5020.44,0.90032
4997.29,0.89929
4974.15,0.90137
4951.01,0.90146
4927.86,0.90190
4904.72,0.90146
4881.57,0.89977
4858.43,0.90020
4835.28,0.90037
4812.14,0.89972
4788.99,0.89732
4765.85,0.89900
4742.7,0.89870
4719.56,0.88446
4696.42,0.86895
4673.27,0.86815
4650.13,0.87517
4626.98,0.86288
4603.84,0.88240
4580.69,0.87872
4557.55,0.88499
4534.4,0.88356
4511.26,0.87500
4488.11,0.85583
4464.97,0.83997
4441.83,0.79096
4418.68,0.69354
4395.54,0.61461
4372.39,0.53797
4349.25,0.40966
4326.1,0.37289
4302.96,0.47510
4279.81,0.46950
4256.67,0.48588
4233.52,0.47942
4210.38,0.46402
4187.24,0.50359
4164.09,0.49675
4140.95,0.55786
4117.8,0.58241
4094.66,0.54433
4071.51,0.53742
4048.37,0.61408
4025.22,0.62604
4002.08,0.64978
3978.93,0.68374
3955.79,0.69549
3932.65,0.68614
3909.5,0.70177
3886.36,0.69091
3863.21,0.67830
3840.07,0.66473
3816.92,0.69015
3793.78,0.73848
3770.63,0.73465
3747.49,0.68764
3724.34,0.71940
3701.2,0.72120
3678.06,0.63238
3654.91,0.66856
3631.77,0.65227
3608.62,0.62223
3585.48,0.59963
3562.33,0.56462
3539.19,0.54647
3516.04,0.53195
3492.9,0.48777
3469.75,0.42609
3446.61,0.36490
3423.47,0.28820
3400.32,0.38192
3377.18,0.46509
3354.03,0.49846
3330.89,0.48490
3307.74,0.34527
3284.6,0.44934
3261.45,0.55061
3238.31,0.56133
3215.16,0.54673
3192.02,0.53561
3168.87,0.53901
3145.73,0.52787
3122.59,0.48616
3099.44,0.41271
3076.3,0.33118
3053.15,0.26821
3030.01,0.23804
3006.86,0.08271
2983.72,0.00041
2960.57,0.00065
2937.43,0.00049
2914.28,0.00055
2891.14,0.00074
2868,0.00020
2844.85,0.00075
2821.71,0.06095
2798.56,0.21442
2775.42,0.34237
2752.27,0.36004
2729.13,0.33599
2705.98,0.43949
2682.84,0.45708
2659.69,0.47868
2636.55,0.49662
2613.41,0.48195
2590.26,0.48198
2567.12,0.49123
2543.97,0.51205
2520.83,0.53870
2497.68,0.58538
2474.54,0.60494
2451.39,0.61257
2428.25,0.58271
2405.1,0.54007
2381.96,0.47940
2358.82,0.35681
2335.67,0.45037
2312.53,0.55639
2289.38,0.60383
2266.24,0.60622
2243.09,0.61711
2219.95,0.62686
2196.8,0.66322
2173.66,0.68860
2150.51,0.68061
2127.37,0.67396
2104.23,0.66683
2081.08,0.65297
2057.94,0.65499
2034.79,0.67285
2011.65,0.69006
1988.5,0.65531
1965.36,0.60102
1942.21,0.50872
1919.07,0.61886
1895.92,0.63881
1872.78,0.64546
1849.64,0.58658
1826.49,0.40548
1803.35,0.41834
1780.2,0.29280
1757.06,0.08399
1733.91,0.00025
1710.77,0.00045
1687.62,0.04727
1664.48,0.17855
1641.33,0.19271
1618.19,0.29042
1595.05,0.34298
1571.9,0.15925
1548.76,0.25756
1525.61,0.23533
1502.47,0.07426
1479.32,0.03799
1456.18,0.00050
1433.03,0.00026
1409.89,0.00006
1386.74,0.00036
1363.6,0.00117
1340.46,0.00033
1317.31,0.00050
1294.17,0.00046
1271.02,0.00021
1247.88,0.00037
1224.73,0.00014
1201.59,0.00143
1178.44,0.01190
1155.3,0.00547
1132.15,0.00019
1109.01,0.00028
1085.87,0.00044
1062.72,0.01372
1039.58,0.02248
1016.43,0.00029
993.287,0.00158
970.142,0.00056
946.998,0.00069
923.853,0.00356
900.709,0.02582
877.564,0.00387
854.42,0.03875
831.275,0.02944
808.131,0.16086
784.986,0.10191
761.842,0.10127
738.697,0.00414
715.552,0.02227
692.408,0.00107
669.263,0.01089
646.119,0.00087
622.974,0.00137
599.83,0.00332