File: 01_Data/PEVA/FTIR/IS/PEVA_0.10_IS_T_240808_R14.dpt
7496.93,0.03697
7473.78,0.03602
7450.64,0.03965
7427.49,0.02321
7404.35,0.04110
7381.2,0.03203
7358.06,0.02839
7334.91,0.04149
7311.77,0.02542
7288.62,0.02437
7265.48,0.04467
7242.34,0.03752
7219.19,0.02669
7196.05,0.03027
7172.9,0.02429
7149.76,0.03083
7126.61,0.02633
7103.47,0.03375
7080.32,0.02843
7057.18,0.03412
7034.03,0.03464
7010.89,0.02533
6987.74,0.02934
6964.6,0.03724
6941.46,0.02611
6918.31,0.03146
6895.17,0.03516
6872.02,0.03153
6848.88,0.03159
6825.73,0.03051
6802.59,0.02932
6779.44,0.04054
6756.3,0.02974
6733.15,0.03534
6710.01,0.02673
6686.86,0.03214
6663.72,0.03166
6640.58,0.03055
6617.43,0.03359
6594.29,0.01962
6571.14,0.02474
6548,0.03329
6524.85,0.03368
6501.71,0.02649
6478.56,0.02777
6455.42,0.02571
6432.27,0.02828
6409.13,0.03027
6385.98,0.03504
6362.84,0.03120
6339.7,0.02795
6316.55,0.02843
6293.41,0.02904
6270.26,0.03082
6247.12,0.02969
6223.97,0.03434
6200.83,0.03049
6177.68,0.03026
6154.54,0.02946
6131.39,0.03395
6108.25,0.02949
6085.1,0.03006
6061.96,0.02888
6038.82,0.02950
6015.67,0.02632
5992.53,0.03063
5969.38,0.03144
5946.24,0.03104
5923.09,0.02821
5899.95,0.03291
5876.8,0.02866
5853.66,0.03002
5830.51,0.02868
5807.37,0.02940
5784.22,0.03106
5761.08,0.02726
5737.94,0.02664
5714.79,0.03048
5691.65,0.02982
5668.5,0.02777
5645.36,0.02984
5622.21,0.03084
5599.07,0.03193
5575.92,0.03066
5552.78,0.02879
5529.63,0.02982
5506.49,0.02938
5483.34,0.03033
5460.2,0.02862
5437.06,0.03117
5413.91,0.02658
5390.77,0.02975
5367.62,0.03133
5344.48,0.02784
5321.33,0.02947
5298.19,0.02980
5275.04,0.03103
5251.9,0.02994
5228.75,0.03026
5205.61,0.03006
5182.46,0.02874
5159.32,0.03068
5136.18,0.03005
5113.03,0.03078
5089.89,0.03038
5066.74,0.02878
5043.6,0.02879
5020.45,0.02940
4997.31,0.03036
4974.16,0.03007
4951.02,0.03107
4927.87,0.03018
4904.73,0.02906
4881.58,0.02983
4858.44,0.02901
4835.3,0.03026
4812.15,0.03098
4789.01,0.02908
4765.86,0.02917
4742.72,0.02946
4719.57,0.02923
4696.43,0.02925
4673.28,0.02910
4650.14,0.02955
4626.99,0.03019
4603.85,0.03010
4580.7,0.02979
4557.56,0.02938
4534.42,0.03015
4511.27,0.02881
4488.13,0.02971
4464.98,0.03017
4441.84,0.02915
4418.69,0.02847
4395.55,0.03034
4372.4,0.03035
4349.26,0.02942
4326.11,0.02994
4302.97,0.02897
4279.82,0.02961
4256.68,0.03047
4233.54,0.02980
4210.39,0.02979
4187.25,0.02931
4164.1,0.03039
4140.96,0.02924
4117.81,0.02915
4094.67,0.02942
4071.52,0.03035
4048.38,0.03004
4025.23,0.02971
4002.09,0.02962
3978.94,0.02968
3955.8,0.02984
3932.66,0.03019
3909.51,0.02931
3886.37,0.02968
3863.22,0.02922
3840.08,0.02970
3816.93,0.03051
3793.79,0.03012
3770.64,0.02938
3747.5,0.02923
3724.35,0.02971
3701.21,0.02943
3678.06,0.02880
3654.92,0.02836
3631.78,0.02804
3608.63,0.02744
3585.49,0.02691
3562.34,0.02721
3539.2,0.02738
3516.05,0.02719
3492.91,0.02656
3469.76,0.02638
3446.62,0.02694
3423.47,0.02603
3400.33,0.02538
3377.18,0.02579
3354.04,0.02566
3330.9,0.02654
3307.75,0.02501
3284.61,0.02492
3261.46,0.02617
3238.32,0.02544
3215.17,0.02627
3192.03,0.02660
3168.88,0.02751
3145.74,0.02733
3122.59,0.02719
3099.45,0.02649
3076.3,0.02649
3053.16,0.02612
3030.02,0.02632
3006.87,0.02625
2983.73,0.02609
2960.58,0.02587
2937.44,0.02544
2914.29,0.02591
2891.15,0.02643
2868,0.02643
2844.86,0.02633
2821.71,0.02647
2798.57,0.02703
2775.42,0.02738
2752.28,0.02751
2729.14,0.02710
2705.99,0.02710
2682.85,0.02697
2659.7,0.02676
2636.56,0.02723
2613.41,0.02710
2590.27,0.02687
2567.12,0.02720
2543.98,0.02708
2520.83,0.02692
2497.69,0.02678
2474.55,0.02684
2451.4,0.02696
2428.26,0.02691
2405.11,0.02673
2381.97,0.02658
2358.82,0.02689
2335.68,0.02654
2312.53,0.02696
2289.39,0.02614
2266.24,0.02651
2243.1,0.02637
2219.95,0.02636
2196.81,0.02610
2173.67,0.02650
2150.52,0.02613
2127.38,0.02592
2104.23,0.02586
2081.09,0.02599
2057.94,0.02578
2034.8,0.02586
2011.65,0.02578
1988.51,0.02571
1965.36,0.02536
1942.22,0.02562
1919.07,0.02552
1895.93,0.02500
1872.79,0.02485
1849.64,0.02457
1826.5,0.02438
1803.35,0.02453
1780.21,0.02317
1757.06,0.02184
1733.92,0.02364
1710.77,0.02439
1687.63,0.02307
1664.48,0.02194
1641.34,0.02198
1618.19,0.02231
1595.05,0.02250
1571.91,0.02179
1548.76,0.02174
1525.62,0.02234
1502.47,0.02240
1479.33,0.02184
1456.18,0.02107
1433.04,0.02173
1409.89,0.02107
1386.75,0.02091
1363.6,0.02103
1340.46,0.02082
1317.31,0.01952
1294.17,0.02008
1271.03,0.02179
1247.88,0.02236
1224.74,0.02209
1201.59,0.02178
1178.45,0.02045
1155.3,0.01973
1132.16,0.02010
1109.01,0.02193
1085.87,0.02172
1062.72,0.02432
1039.58,0.02256
1016.43,0.02330
993.29,0.02440
970.145,0.02426
947,0.02298
923.856,0.02167
900.711,0.02227
877.567,0.02235
854.422,0.02110
831.277,0.02201
808.133,0.02076
784.988,0.01964
761.844,0.01946
738.699,0.01979
715.554,0.01866
692.41,0.01818
669.265,0.01842
646.12,0.01929
622.976,0.01782
599.831,0.01916