File: 01_Data/PEVA/FTIR/IS/PEVA_0.18_IS_T_240809_R9.dpt
7497.33,0.03956
7474.19,0.02017
7451.04,0.02950
7427.9,0.03127
7404.75,0.02002
7381.6,0.03190
7358.46,0.03814
7335.31,0.03471
7312.17,0.03507
7289.02,0.01868
7265.87,0.03291
7242.73,0.02772
7219.58,0.03276
7196.44,0.03008
7173.29,0.04456
7150.15,0.03137
7127,0.03712
7103.85,0.03850
7080.71,0.02802
7057.56,0.03576
7034.42,0.03065
7011.27,0.04204
6988.12,0.03291
6964.98,0.03254
6941.83,0.02224
6918.69,0.03299
6895.54,0.03836
6872.39,0.03141
6849.25,0.03280
6826.1,0.02782
6802.96,0.02929
6779.81,0.02838
6756.67,0.02403
6733.52,0.03712
6710.37,0.03800
6687.23,0.03705
6664.08,0.02960
6640.94,0.03256
6617.79,0.02819
6594.64,0.02664
6571.5,0.03463
6548.35,0.03654
6525.21,0.02810
6502.06,0.02691
6478.92,0.03349
6455.77,0.03240
6432.62,0.03101
6409.48,0.02924
6386.33,0.03093
6363.19,0.03212
6340.04,0.03601
6316.89,0.03077
6293.75,0.02755
6270.6,0.03075
6247.46,0.03026
6224.31,0.02998
6201.16,0.02819
6178.02,0.02814
6154.87,0.02855
6131.73,0.03247
6108.58,0.03198
6085.44,0.02886
6062.29,0.03291
6039.14,0.02967
6016,0.03341
5992.85,0.03471
5969.71,0.02923
5946.56,0.03265
5923.41,0.03159
5900.27,0.03129
5877.12,0.03067
5853.98,0.03243
5830.83,0.03018
5807.68,0.03105
5784.54,0.03030
5761.39,0.03232
5738.25,0.02996
5715.1,0.02901
5691.96,0.02758
5668.81,0.02971
5645.66,0.02975
5622.52,0.02982
5599.37,0.03215
5576.23,0.03081
5553.08,0.03110
5529.93,0.03109
5506.79,0.03054
5483.64,0.03068
5460.5,0.02955
5437.35,0.03064
5414.21,0.02768
5391.06,0.03023
5367.91,0.03016
5344.77,0.03136
5321.62,0.03072
5298.48,0.02915
5275.33,0.02996
5252.18,0.03048
5229.04,0.03054
5205.89,0.03088
5182.75,0.03156
5159.6,0.03037
5136.45,0.02950
5113.31,0.03125
5090.16,0.02999
5067.02,0.03179
5043.87,0.02991
5020.73,0.03054
4997.58,0.03042
4974.43,0.02994
4951.29,0.03021
4928.14,0.03065
4905,0.03076
4881.85,0.03091
4858.7,0.03102
4835.56,0.02925
4812.41,0.03088
4789.27,0.03056
4766.12,0.03023
4742.97,0.03115
4719.83,0.03059
4696.68,0.03029
4673.54,0.03048
4650.39,0.03107
4627.25,0.03158
4604.1,0.03058
4580.95,0.03048
4557.81,0.03014
4534.66,0.03020
4511.52,0.03103
4488.37,0.03132
4465.22,0.03103
4442.08,0.03066
4418.93,0.02980
4395.79,0.03122
4372.64,0.03180
4349.49,0.03051
4326.35,0.03058
4303.2,0.03054
4280.06,0.03104
4256.91,0.03073
4233.77,0.03021
4210.62,0.03019
4187.47,0.03049
4164.33,0.03120
4141.18,0.03045
4118.04,0.03038
4094.89,0.03074
4071.74,0.03099
4048.6,0.03098
4025.45,0.03088
4002.31,0.03042
3979.16,0.03078
3956.02,0.03084
3932.87,0.03017
3909.72,0.03038
3886.58,0.03129
3863.43,0.03028
3840.29,0.03075
3817.14,0.03028
3793.99,0.03043
3770.85,0.03065
3747.7,0.03044
3724.56,0.03057
3701.41,0.02921
3678.26,0.02969
3655.12,0.02926
3631.97,0.02892
3608.83,0.02895
3585.68,0.02854
3562.54,0.02827
3539.39,0.02743
3516.24,0.02657
3493.1,0.02688
3469.95,0.02675
3446.81,0.02659
3423.66,0.02688
3400.51,0.02639
3377.37,0.02591
3354.22,0.02582
3331.08,0.02605
3307.93,0.02647
3284.78,0.02704
3261.64,0.02664
3238.49,0.02764
3215.35,0.02724
3192.2,0.02722
3169.06,0.02695
3145.91,0.02741
3122.76,0.02773
3099.62,0.02715
3076.47,0.02666
3053.33,0.02709
3030.18,0.02761
3007.03,0.02677
2983.89,0.02646
2960.74,0.02625
2937.6,0.02529
2914.45,0.02662
2891.31,0.02717
2868.16,0.02653
2845.01,0.02736
2821.87,0.02704
2798.72,0.02735
2775.58,0.02714
2752.43,0.02789
2729.28,0.02738
2706.14,0.02699
2682.99,0.02787
2659.85,0.02730
2636.7,0.02735
2613.55,0.02756
2590.41,0.02761
2567.26,0.02756
2544.12,0.02704
2520.97,0.02741
2497.83,0.02734
2474.68,0.02774
2451.53,0.02764
2428.39,0.02714
2405.24,0.02741
2382.1,0.02733
2358.95,0.02737
2335.8,0.02744
2312.66,0.02756
2289.51,0.02673
2266.37,0.02655
2243.22,0.02708
2220.07,0.02643
2196.93,0.02667
2173.78,0.02655
2150.64,0.02683
2127.49,0.02609
2104.35,0.02615
2081.2,0.02607
2058.05,0.02578
2034.91,0.02586
2011.76,0.02604
1988.62,0.02582
1965.47,0.02604
1942.32,0.02575
1919.18,0.02590
1896.03,0.02577
1872.89,0.02539
1849.74,0.02525
1826.6,0.02489
1803.45,0.02493
1780.3,0.02352
1757.16,0.02232
1734.01,0.02388
1710.87,0.02459
1687.72,0.02335
1664.57,0.02247
1641.43,0.02194
1618.28,0.02321
1595.14,0.02276
1571.99,0.02198
1548.84,0.02215
1525.7,0.02309
1502.55,0.02197
1479.41,0.02211
1456.26,0.02183
1433.12,0.02152
1409.97,0.02134
1386.82,0.02073
1363.68,0.02093
1340.53,0.02066
1317.39,0.01991
1294.24,0.02030
1271.09,0.02234
1247.95,0.02258
1224.8,0.02212
1201.66,0.02168
1178.51,0.02127
1155.36,0.02050
1132.22,0.02049
1109.07,0.02277
1085.93,0.02162
1062.78,0.02340
1039.64,0.02293
1016.49,0.02270
993.344,0.02417
970.198,0.02361
947.052,0.02282
923.906,0.02238
900.76,0.02191
877.614,0.02221
854.468,0.02215
831.323,0.02196
808.177,0.02134
785.031,0.02156
761.885,0.02080
738.739,0.02021
715.593,0.02009
692.447,0.01917
669.301,0.01888
646.156,0.01886
623.01,0.01874
599.864,0.01727