File: 01_Data/PEVA/FTIR/IS/PEVA_0.18_IS_S_240809_R10.dpt
7497.33,0.10010
7474.19,0.11597
7451.04,0.11179
7427.9,0.11022
7404.75,0.10831
7381.6,0.11387
7358.46,0.09567
7335.31,0.11110
7312.17,0.09685
7289.02,0.10306
7265.87,0.09524
7242.73,0.11118
7219.58,0.10208
7196.44,0.10150
7173.29,0.09537
7150.15,0.10725
7127,0.10580
7103.85,0.10237
7080.71,0.10477
7057.56,0.10184
7034.42,0.10072
7011.27,0.10488
6988.12,0.09912
6964.98,0.09229
6941.83,0.09595
6918.69,0.09754
6895.54,0.09967
6872.39,0.10001
6849.25,0.10935
6826.1,0.10690
6802.96,0.10876
6779.81,0.10789
6756.67,0.10466
6733.52,0.09520
6710.37,0.09843
6687.23,0.10195
6664.08,0.10322
6640.94,0.10078
6617.79,0.10130
6594.64,0.10874
6571.5,0.10241
6548.35,0.10606
6525.21,0.10018
6502.06,0.10366
6478.92,0.10306
6455.77,0.10221
6432.62,0.10413
6409.48,0.10138
6386.33,0.10464
6363.19,0.10304
6340.04,0.10082
6316.89,0.10692
6293.75,0.10059
6270.6,0.10025
6247.46,0.09925
6224.31,0.09905
6201.16,0.10327
6178.02,0.10256
6154.87,0.10357
6131.73,0.10325
6108.58,0.10141
6085.44,0.10102
6062.29,0.10590
6039.14,0.10141
6016,0.10041
5992.85,0.09882
5969.71,0.09891
5946.56,0.09963
5923.41,0.10130
5900.27,0.09841
5877.12,0.10102
5853.98,0.09754
5830.83,0.09551
5807.68,0.08822
5784.54,0.08446
5761.39,0.08875
5738.25,0.09388
5715.1,0.09565
5691.96,0.09438
5668.81,0.09164
5645.66,0.09517
5622.52,0.09728
5599.37,0.09733
5576.23,0.09913
5553.08,0.09807
5529.93,0.09899
5506.79,0.09579
5483.64,0.09718
5460.5,0.09738
5437.35,0.09774
5414.21,0.10014
5391.06,0.10002
5367.91,0.10080
5344.77,0.10226
5321.62,0.09871
5298.48,0.09901
5275.33,0.10029
5252.18,0.10070
5229.04,0.10007
5205.89,0.10225
5182.75,0.10203
5159.6,0.09974
5136.45,0.10182
5113.31,0.10104
5090.16,0.10087
5067.02,0.10216
5043.87,0.09991
5020.73,0.10123
4997.58,0.10189
4974.43,0.10110
4951.29,0.10185
4928.14,0.10150
4905,0.10247
4881.85,0.10196
4858.7,0.10126
4835.56,0.10142
4812.41,0.10260
4789.27,0.10475
4766.12,0.10290
4742.97,0.10286
4719.83,0.10299
4696.68,0.10285
4673.54,0.10067
4650.39,0.10200
4627.25,0.10224
4604.1,0.10160
4580.95,0.10136
4557.81,0.10271
4534.66,0.10196
4511.52,0.10217
4488.37,0.10144
4465.22,0.09980
4442.08,0.09732
4418.93,0.09358
4395.79,0.08858
4372.64,0.08218
4349.49,0.07328
4326.35,0.06341
4303.2,0.07686
4280.06,0.07676
4256.91,0.06739
4233.77,0.07560
4210.62,0.07327
4187.47,0.07179
4164.33,0.07180
4141.18,0.07311
4118.04,0.07337
4094.89,0.07390
4071.74,0.07762
4048.6,0.08044
4025.45,0.08153
4002.31,0.08424
3979.16,0.08425
3956.02,0.08502
3932.87,0.08423
3909.72,0.08539
3886.58,0.08563
3863.43,0.08706
3840.29,0.08971
3817.14,0.08962
3793.99,0.09108
3770.85,0.09111
3747.7,0.09069
3724.56,0.09082
3701.41,0.08881
3678.26,0.08721
3655.12,0.08473
3631.97,0.08572
3608.83,0.08214
3585.68,0.09143
3562.54,0.09172
3539.39,0.09338
3516.24,0.09318
3493.1,0.09288
3469.95,0.08452
3446.81,0.08286
3423.66,0.08943
3400.51,0.09080
3377.37,0.08908
3354.22,0.08959
3331.08,0.09055
3307.93,0.09067
3284.78,0.09035
3261.64,0.08939
3238.49,0.08960
3215.35,0.08881
3192.2,0.08817
3169.06,0.08588
3145.91,0.08436
3122.76,0.07988
3099.62,0.07256
3076.47,0.06578
3053.33,0.06074
3030.18,0.05654
3007.03,0.05419
2983.89,0.05180
2960.74,0.04862
2937.6,0.04016
2914.45,0.08885
2891.31,0.06910
2868.16,0.05984
2845.01,0.08415
2821.87,0.06785
2798.72,0.06653
2775.58,0.06889
2752.43,0.06982
2729.28,0.06952
2706.14,0.06972
2682.99,0.06752
2659.85,0.06684
2636.7,0.06721
2613.55,0.07058
2590.41,0.07528
2567.26,0.08039
2544.12,0.08372
2520.97,0.08543
2497.83,0.08770
2474.68,0.08794
2451.53,0.09243
2428.39,0.09294
2405.24,0.09200
2382.1,0.09118
2358.95,0.08791
2335.8,0.08282
2312.66,0.08354
2289.51,0.08565
2266.37,0.08755
2243.22,0.08938
2220.07,0.09362
2196.93,0.09430
2173.78,0.09313
2150.64,0.09298
2127.49,0.09581
2104.35,0.09415
2081.2,0.09124
2058.05,0.08835
2034.91,0.08514
2011.76,0.08674
1988.62,0.09323
1965.47,0.09319
1942.32,0.09163
1919.18,0.08949
1896.03,0.08505
1872.89,0.08617
1849.74,0.08726
1826.6,0.08366
1803.45,0.07713
1780.3,0.07050
1757.16,0.06126
1734.01,0.05073
1710.87,0.05929
1687.72,0.06286
1664.57,0.07235
1641.43,0.07191
1618.28,0.07684
1595.14,0.07879
1571.99,0.07869
1548.84,0.07706
1525.7,0.07414
1502.55,0.06996
1479.41,0.05611
1456.26,0.06443
1433.12,0.06164
1409.97,0.06258
1386.82,0.05625
1363.68,0.05552
1340.53,0.05862
1317.39,0.05750
1294.24,0.05546
1271.09,0.05525
1247.95,0.07248
1224.8,0.06246
1201.66,0.05814
1178.51,0.06010
1155.36,0.06040
1132.22,0.05995
1109.07,0.06098
1085.93,0.05969
1062.78,0.05885
1039.64,0.05825
1016.49,0.06260
993.344,0.06307
970.198,0.06072
947.052,0.06165
923.906,0.06794
900.76,0.07580
877.614,0.07575
854.468,0.07191
831.323,0.06978
808.177,0.06994
785.031,0.07874
761.885,0.08216
738.739,0.05897
715.593,0.06197
692.447,0.09903
669.301,0.09324
646.156,0.06152
623.01,0.05641
599.864,0.05631