File: 01_Data/PEVA/FTIR/IS/PEVA_0.10_IS_T_240808_R7.dpt
7496.93,0.03722
7473.78,0.03942
7450.64,0.01493
7427.49,0.03909
7404.35,0.03841
7381.2,0.02198
7358.06,0.04405
7334.91,0.03312
7311.77,0.03534
7288.62,0.04217
7265.48,0.03982
7242.34,0.03388
7219.19,0.03196
7196.05,0.03780
7172.9,0.02930
7149.76,0.03387
7126.61,0.04064
7103.47,0.03492
7080.32,0.03450
7057.18,0.03003
7034.03,0.03785
7010.89,0.03412
6987.74,0.03009
6964.6,0.03046
6941.46,0.03913
6918.31,0.03401
6895.17,0.03479
6872.02,0.03194
6848.88,0.03600
6825.73,0.02648
6802.59,0.03620
6779.44,0.02967
6756.3,0.03118
6733.15,0.03856
6710.01,0.02923
6686.86,0.02945
6663.72,0.03073
6640.58,0.02908
6617.43,0.03971
6594.29,0.02710
6571.14,0.03877
6548,0.02712
6524.85,0.03178
6501.71,0.03039
6478.56,0.03027
6455.42,0.03358
6432.27,0.02618
6409.13,0.02844
6385.98,0.02562
6362.84,0.03211
6339.7,0.02775
6316.55,0.03138
6293.41,0.03421
6270.26,0.02982
6247.12,0.02823
6223.97,0.02930
6200.83,0.02956
6177.68,0.02981
6154.54,0.03052
6131.39,0.02378
6108.25,0.02977
6085.1,0.02945
6061.96,0.03300
6038.82,0.02966
6015.67,0.02887
5992.53,0.03085
5969.38,0.03092
5946.24,0.02839
5923.09,0.03177
5899.95,0.03074
5876.8,0.03021
5853.66,0.03039
5830.51,0.03028
5807.37,0.02824
5784.22,0.03027
5761.08,0.03051
5737.94,0.03135
5714.79,0.03303
5691.65,0.02987
5668.5,0.02935
5645.36,0.03053
5622.21,0.02905
5599.07,0.03011
5575.92,0.02866
5552.78,0.03238
5529.63,0.03171
5506.49,0.02896
5483.34,0.03103
5460.2,0.02901
5437.06,0.02979
5413.91,0.03074
5390.77,0.03036
5367.62,0.03073
5344.48,0.02923
5321.33,0.02915
5298.19,0.02987
5275.04,0.02915
5251.9,0.03184
5228.75,0.02729
5205.61,0.03070
5182.46,0.03032
5159.32,0.02969
5136.18,0.03079
5113.03,0.02978
5089.89,0.02936
5066.74,0.02998
5043.6,0.02970
5020.45,0.02774
4997.31,0.02978
4974.16,0.03061
4951.02,0.02993
4927.87,0.02900
4904.73,0.02963
4881.58,0.02875
4858.44,0.02882
4835.3,0.03010
4812.15,0.02871
4789.01,0.02940
4765.86,0.02933
4742.72,0.03004
4719.57,0.03045
4696.43,0.02928
4673.28,0.03141
4650.14,0.03091
4626.99,0.03089
4603.85,0.02977
4580.7,0.03064
4557.56,0.02958
4534.42,0.03004
4511.27,0.02967
4488.13,0.03052
4464.98,0.03023
4441.84,0.03029
4418.69,0.02962
4395.55,0.02988
4372.4,0.02977
4349.26,0.02986
4326.11,0.02986
4302.97,0.03064
4279.82,0.03023
4256.68,0.02952
4233.54,0.02917
4210.39,0.03044
4187.25,0.03027
4164.1,0.03010
4140.96,0.02951
4117.81,0.02993
4094.67,0.03013
4071.52,0.02859
4048.38,0.03078
4025.23,0.03100
4002.09,0.02998
3978.94,0.02970
3955.8,0.02921
3932.66,0.03031
3909.51,0.02916
3886.37,0.03002
3863.22,0.03051
3840.08,0.03059
3816.93,0.02984
3793.79,0.02984
3770.64,0.02954
3747.5,0.03185
3724.35,0.02910
3701.21,0.02937
3678.06,0.03042
3654.92,0.02875
3631.78,0.02753
3608.63,0.02771
3585.49,0.02770
3562.34,0.02688
3539.2,0.02742
3516.05,0.02698
3492.91,0.02787
3469.76,0.02663
3446.62,0.02639
3423.47,0.02556
3400.33,0.02608
3377.18,0.02594
3354.04,0.02580
3330.9,0.02611
3307.75,0.02666
3284.61,0.02583
3261.46,0.02644
3238.32,0.02629
3215.17,0.02624
3192.03,0.02633
3168.88,0.02732
3145.74,0.02627
3122.59,0.02723
3099.45,0.02634
3076.3,0.02657
3053.16,0.02719
3030.02,0.02615
3006.87,0.02680
2983.73,0.02605
2960.58,0.02479
2937.44,0.02575
2914.29,0.02599
2891.15,0.02595
2868,0.02625
2844.86,0.02698
2821.71,0.02738
2798.57,0.02757
2775.42,0.02718
2752.28,0.02762
2729.14,0.02761
2705.99,0.02739
2682.85,0.02731
2659.7,0.02734
2636.56,0.02732
2613.41,0.02717
2590.27,0.02746
2567.12,0.02728
2543.98,0.02686
2520.83,0.02685
2497.69,0.02667
2474.55,0.02747
2451.4,0.02678
2428.26,0.02706
2405.11,0.02688
2381.97,0.02688
2358.82,0.02748
2335.68,0.02693
2312.53,0.02708
2289.39,0.02685
2266.24,0.02627
2243.1,0.02654
2219.95,0.02670
2196.81,0.02600
2173.67,0.02613
2150.52,0.02617
2127.38,0.02600
2104.23,0.02557
2081.09,0.02611
2057.94,0.02593
2034.8,0.02579
2011.65,0.02589
1988.51,0.02556
1965.36,0.02549
1942.22,0.02556
1919.07,0.02554
1895.93,0.02495
1872.79,0.02508
1849.64,0.02501
1826.5,0.02464
1803.35,0.02440
1780.21,0.02338
1757.06,0.02166
1733.92,0.02339
1710.77,0.02423
1687.63,0.02266
1664.48,0.02232
1641.34,0.02229
1618.19,0.02250
1595.05,0.02235
1571.91,0.02218
1548.76,0.02212
1525.62,0.02232
1502.47,0.02178
1479.33,0.02188
1456.18,0.02136
1433.04,0.02198
1409.89,0.02123
1386.75,0.02069
1363.6,0.02079
1340.46,0.02070
1317.31,0.01971
1294.17,0.02078
1271.03,0.02159
1247.88,0.02284
1224.74,0.02170
1201.59,0.02126
1178.45,0.02046
1155.3,0.01989
1132.16,0.02048
1109.01,0.02143
1085.87,0.02179
1062.72,0.02397
1039.58,0.02282
1016.43,0.02259
993.29,0.02406
970.145,0.02367
947,0.02274
923.856,0.02212
900.711,0.02228
877.567,0.02165
854.422,0.02163
831.277,0.02199
808.133,0.02054
784.988,0.02009
761.844,0.02071
738.699,0.01940
715.554,0.02037
692.41,0.01894
669.265,0.01734
646.12,0.01813
622.976,0.01834
599.831,0.01834