File: 01_Data/PEVA/FTIR/IS/PEVA_0.26_IS_S_240809_R1.dpt
7497.2,0.10565
7474.05,0.10509
7450.91,0.10125
7427.76,0.10363
7404.62,0.09574
7381.47,0.10765
7358.33,0.10222
7335.18,0.10924
7312.04,0.10066
7288.89,0.10005
7265.75,0.09649
7242.6,0.10177
7219.45,0.09846
7196.31,0.10039
7173.16,0.09927
7150.02,0.09851
7126.87,0.09824
7103.73,0.10470
7080.58,0.09951
7057.44,0.09897
7034.29,0.09121
7011.15,0.10333
6988,0.10403
6964.85,0.09832
6941.71,0.09929
6918.56,0.10742
6895.42,0.09719
6872.27,0.10817
6849.13,0.09833
6825.98,0.09461
6802.84,0.10480
6779.69,0.10246
6756.55,0.09988
6733.4,0.10113
6710.25,0.10512
6687.11,0.10373
6663.96,0.09993
6640.82,0.10584
6617.67,0.10313
6594.53,0.10269
6571.38,0.10137
6548.24,0.10037
6525.09,0.10261
6501.95,0.10283
6478.8,0.10147
6455.65,0.10291
6432.51,0.10051
6409.36,0.09975
6386.22,0.10181
6363.07,0.10471
6339.93,0.10768
6316.78,0.10192
6293.64,0.10271
6270.49,0.09883
6247.34,0.10581
6224.2,0.10296
6201.05,0.09814
6177.91,0.10365
6154.76,0.09748
6131.62,0.10568
6108.47,0.09902
6085.33,0.10379
6062.18,0.10110
6039.04,0.09851
6015.89,0.09459
5992.74,0.09992
5969.6,0.09939
5946.45,0.09900
5923.31,0.10012
5900.16,0.09709
5877.02,0.09512
5853.87,0.08746
5830.73,0.08568
5807.58,0.08810
5784.44,0.09500
5761.29,0.09484
5738.14,0.09510
5715,0.09384
5691.85,0.09539
5668.71,0.09500
5645.56,0.09841
5622.42,0.09575
5599.27,0.09897
5576.13,0.09685
5552.98,0.09947
5529.84,0.09803
5506.69,0.09919
5483.54,0.09815
5460.4,0.09830
5437.25,0.10084
5414.11,0.09963
5390.96,0.09887
5367.82,0.10060
5344.67,0.09935
5321.53,0.10187
5298.38,0.10175
5275.24,0.10252
5252.09,0.10072
5228.94,0.10230
5205.8,0.10191
5182.65,0.10227
5159.51,0.10141
5136.36,0.10151
5113.22,0.10120
5090.07,0.10108
5066.93,0.10304
5043.78,0.10335
5020.64,0.10288
4997.49,0.10184
4974.34,0.10239
4951.2,0.10166
4928.05,0.10232
4904.91,0.10317
4881.76,0.10296
4858.62,0.10329
4835.47,0.10346
4812.33,0.10376
4789.18,0.10316
4766.04,0.10254
4742.89,0.10332
4719.74,0.10260
4696.6,0.10027
4673.45,0.10085
4650.31,0.10175
4627.16,0.09991
4604.02,0.10151
4580.87,0.10164
4557.73,0.10297
4534.58,0.10147
4511.44,0.10085
4488.29,0.09940
4465.14,0.09819
4442,0.09439
4418.85,0.08758
4395.71,0.08119
4372.56,0.07683
4349.42,0.07078
4326.27,0.06897
4303.13,0.07314
4279.98,0.07308
4256.84,0.07439
4233.69,0.07397
4210.54,0.07375
4187.4,0.07559
4164.25,0.07474
4141.11,0.07799
4117.96,0.08045
4094.82,0.07814
4071.67,0.07699
4048.53,0.08231
4025.38,0.08221
4002.24,0.08428
3979.09,0.08648
3955.94,0.08870
3932.8,0.08786
3909.65,0.08910
3886.51,0.08957
3863.36,0.08896
3840.22,0.08991
3817.07,0.09114
3793.93,0.09217
3770.78,0.09233
3747.64,0.09311
3724.49,0.09403
3701.34,0.09187
3678.2,0.08600
3655.05,0.08621
3631.91,0.08692
3608.76,0.08426
3585.62,0.08156
3562.47,0.07843
3539.33,0.07701
3516.18,0.07545
3493.04,0.07252
3469.89,0.06969
3446.74,0.06766
3423.6,0.06478
3400.45,0.06818
3377.31,0.07144
3354.16,0.07270
3331.02,0.07144
3307.87,0.06648
3284.73,0.07044
3261.58,0.07484
3238.44,0.07633
3215.29,0.07546
3192.14,0.07451
3169,0.07482
3145.85,0.07410
3122.71,0.07175
3099.56,0.06824
3076.42,0.06492
3053.27,0.06282
3030.13,0.06152
3006.98,0.05881
2983.84,0.05643
2960.69,0.05864
2937.54,0.05924
2914.4,0.06231
2891.25,0.06226
2868.11,0.06153
2844.96,0.06317
2821.82,0.06210
2798.67,0.06426
2775.53,0.06791
2752.38,0.06869
2729.24,0.06753
2706.09,0.07178
2682.94,0.07212
2659.8,0.07365
2636.65,0.07419
2613.51,0.07300
2590.36,0.07352
2567.22,0.07393
2544.07,0.07483
2520.93,0.07626
2497.78,0.07901
2474.64,0.07993
2451.49,0.08046
2428.34,0.07864
2405.2,0.07597
2382.05,0.07437
2358.91,0.07751
2335.76,0.08134
2312.62,0.08280
2289.47,0.08088
2266.33,0.08080
2243.18,0.08072
2220.04,0.08103
2196.89,0.08347
2173.74,0.08563
2150.6,0.08484
2127.45,0.08363
2104.31,0.08282
2081.16,0.08185
2058.02,0.08232
2034.87,0.08375
2011.73,0.08503
1988.58,0.08224
1965.44,0.07802
1942.29,0.07296
1919.14,0.07961
1896,0.08077
1872.85,0.08089
1849.71,0.07663
1826.56,0.06684
1803.42,0.06691
1780.27,0.06108
1757.13,0.05496
1733.98,0.04992
1710.84,0.06960
1687.69,0.06164
1664.54,0.06118
1641.4,0.06115
1618.25,0.06344
1595.11,0.06417
1571.96,0.05951
1548.82,0.06042
1525.67,0.05991
1502.53,0.05640
1479.38,0.05465
1456.24,0.05732
1433.09,0.05593
1409.94,0.05607
1386.8,0.05421
1363.65,0.05481
1340.51,0.05239
1317.36,0.05257
1294.22,0.04804
1271.07,0.06517
1247.93,0.07246
1224.78,0.06836
1201.64,0.06319
1178.49,0.06043
1155.34,0.05902
1132.2,0.05374
1109.05,0.06425
1085.91,0.06711
1062.76,0.06452
1039.62,0.06180
1016.47,0.06504
993.326,0.06117
970.18,0.06206
947.035,0.06440
923.89,0.06295
900.744,0.06281
877.599,0.06158
854.453,0.06235
831.308,0.06136
808.162,0.06308
785.017,0.06095
761.871,0.05912
738.726,0.05159
715.58,0.06187
692.435,0.05935
669.29,0.06056
646.144,0.05680
622.999,0.06084
599.853,0.06776