File: 01_Data/PEVA/FTIR/IS/PEVA_0.10_IS_Trans_S_240819_R7.dpt
7496.91,0.93050
7473.76,0.94542
7450.62,0.94011
7427.47,0.94367
7404.33,0.92728
7381.18,0.92116
7358.04,0.91697
7334.89,0.91356
7311.75,0.91689
7288.61,0.93232
7265.46,0.94623
7242.32,0.93538
7219.17,0.93187
7196.03,0.93311
7172.88,0.92302
7149.74,0.92502
7126.59,0.92926
7103.45,0.92844
7080.3,0.93003
7057.16,0.92400
7034.02,0.92753
7010.87,0.91928
6987.73,0.92387
6964.58,0.92975
6941.44,0.92392
6918.29,0.92382
6895.15,0.92868
6872,0.93395
6848.86,0.93081
6825.71,0.92892
6802.57,0.93012
6779.43,0.93121
6756.28,0.94542
6733.14,0.93133
6709.99,0.93355
6686.85,0.93695
6663.7,0.93429
6640.56,0.93759
6617.41,0.93968
6594.27,0.93397
6571.12,0.93826
6547.98,0.93842
6524.84,0.93395
6501.69,0.93861
6478.55,0.93888
6455.4,0.93664
6432.26,0.93723
6409.11,0.92836
6385.97,0.93978
6362.82,0.93979
6339.68,0.93914
6316.53,0.93898
6293.39,0.94054
6270.24,0.93713
6247.1,0.93663
6223.96,0.94117
6200.81,0.93692
6177.67,0.94018
6154.52,0.93563
6131.38,0.93144
6108.23,0.93855
6085.09,0.93365
6061.94,0.93287
6038.8,0.93297
6015.65,0.92726
5992.51,0.92634
5969.37,0.92639
5946.22,0.92134
5923.08,0.91785
5899.93,0.91497
5876.79,0.90298
5853.64,0.88678
5830.5,0.86799
5807.35,0.84150
5784.21,0.78803
5761.06,0.82049
5737.92,0.87265
5714.78,0.88653
5691.63,0.87651
5668.49,0.84955
5645.34,0.88092
5622.2,0.89017
5599.05,0.89590
5575.91,0.89593
5552.76,0.89201
5529.62,0.89544
5506.47,0.89334
5483.33,0.89347
5460.19,0.89449
5437.04,0.89841
5413.9,0.89717
5390.75,0.90533
5367.61,0.91117
5344.46,0.90472
5321.32,0.91165
5298.17,0.91322
5275.03,0.91140
5251.88,0.91193
5228.74,0.91267
5205.6,0.90562
5182.45,0.91402
5159.31,0.91218
5136.16,0.91661
5113.02,0.91688
5089.87,0.91554
5066.73,0.91619
5043.58,0.91905
5020.44,0.91756
4997.29,0.91633
4974.15,0.91523
4951.01,0.91413
4927.86,0.91923
4904.72,0.91927
4881.57,0.91929
4858.43,0.91900
4835.28,0.92132
4812.14,0.92288
4788.99,0.92249
4765.85,0.92600
4742.7,0.92361
4719.56,0.92482
4696.42,0.92738
4673.27,0.92163
4650.13,0.92493
4626.98,0.92614
4603.84,0.92253
4580.69,0.92396
4557.55,0.92247
4534.4,0.91861
4511.26,0.91793
4488.11,0.91294
4464.97,0.90592
4441.83,0.89754
4418.68,0.87909
4395.54,0.83487
4372.39,0.78305
4349.25,0.67026
4326.1,0.40086
4302.96,0.72071
4279.81,0.70916
4256.67,0.52855
4233.52,0.67081
4210.38,0.63948
4187.24,0.58333
4164.09,0.59597
4140.95,0.60314
4117.8,0.61588
4094.66,0.62140
4071.51,0.69510
4048.37,0.72882
4025.22,0.74281
4002.08,0.78381
3978.93,0.78296
3955.79,0.79664
3932.65,0.77710
3909.5,0.77715
3886.36,0.77561
3863.21,0.78093
3840.07,0.78289
3816.92,0.78800
3793.78,0.81635
3770.63,0.82338
3747.49,0.81316
3724.34,0.81944
3701.2,0.82199
3678.06,0.80900
3654.91,0.79778
3631.77,0.80516
3608.62,0.75103
3585.48,0.84473
3562.33,0.87635
3539.19,0.89097
3516.04,0.89292
3492.9,0.89192
3469.75,0.88346
3446.61,0.87096
3423.47,0.87348
3400.32,0.87134
3377.18,0.86149
3354.03,0.86801
3330.89,0.87499
3307.74,0.87435
3284.6,0.87782
3261.45,0.87623
3238.31,0.86855
3215.16,0.86164
3192.02,0.85063
3168.87,0.83637
3145.73,0.82001
3122.59,0.79501
3099.44,0.72402
3076.3,0.61770
3053.15,0.54143
3030.01,0.42232
3006.86,0.31995
2983.72,0.14244
2960.57,0.00153
2937.43,0.00050
2914.28,0.00061
2891.14,0.00101
2868,0.00080
2844.85,0.00130
2821.71,0.04057
2798.56,0.17527
2775.42,0.35389
2752.27,0.43863
2729.13,0.45040
2705.98,0.50086
2682.84,0.48472
2659.69,0.46400
2636.55,0.47573
2613.41,0.56532
2590.26,0.64271
2567.12,0.71388
2543.97,0.74839
2520.83,0.77235
2497.68,0.81449
2474.54,0.82186
2451.39,0.84410
2428.25,0.84172
2405.1,0.83536
2381.96,0.82872
2358.82,0.77006
2335.67,0.73277
2312.53,0.77490
2289.38,0.82189
2266.24,0.84417
2243.09,0.84738
2219.95,0.86959
2196.8,0.87067
2173.66,0.86623
2150.51,0.85975
2127.37,0.88124
2104.23,0.88325
2081.08,0.88314
2057.94,0.86577
2034.79,0.83512
2011.65,0.83913
1988.5,0.88271
1965.36,0.88159
1942.21,0.88114
1919.07,0.86602
1895.92,0.83987
1872.78,0.89216
1849.64,0.89081
1826.49,0.88212
1803.35,0.88655
1780.2,0.87457
1757.06,0.84056
1733.91,0.80715
1710.77,0.78940
1687.62,0.85411
1664.48,0.86082
1641.33,0.82615
1618.19,0.83198
1595.05,0.83028
1571.9,0.80798
1548.76,0.79976
1525.61,0.76631
1502.47,0.68202
1479.32,0.28326
1456.18,0.02074
1433.03,0.31149
1409.89,0.71023
1386.74,0.65400
1363.6,0.41147
1340.46,0.59390
1317.31,0.60380
1294.17,0.58821
1271.02,0.66872
1247.88,0.70405
1224.73,0.75535
1201.59,0.76853
1178.44,0.72836
1155.3,0.75401
1132.15,0.77839
1109.01,0.74626
1085.87,0.73426
1062.72,0.76231
1039.58,0.75180
1016.43,0.72812
993.287,0.82242
970.142,0.78323
946.998,0.85378
923.853,0.84432
900.709,0.80976
877.564,0.87196
854.42,0.84971
831.275,0.81061
808.131,0.85054
784.986,0.77894
761.842,0.70140
738.697,0.50917
715.552,0.13258
692.408,0.82107
669.263,0.87435
646.119,0.86008
622.974,0.90921
599.83,0.95529