File: 01_Data/PEVA/FTIR/IS/PEVA_0.18_IS_S_240809_R5.dpt
7497.33,0.10090
7474.19,0.10180
7451.04,0.10221
7427.9,0.10314
7404.75,0.10325
7381.6,0.10647
7358.46,0.10336
7335.31,0.10840
7312.17,0.10379
7289.02,0.10635
7265.87,0.10357
7242.73,0.10421
7219.58,0.09362
7196.44,0.09587
7173.29,0.09679
7150.15,0.10245
7127,0.10540
7103.85,0.09544
7080.71,0.10293
7057.56,0.09673
7034.42,0.09767
7011.27,0.11052
6988.12,0.09736
6964.98,0.10031
6941.83,0.10310
6918.69,0.10677
6895.54,0.10515
6872.39,0.10260
6849.25,0.10899
6826.1,0.10511
6802.96,0.10682
6779.81,0.10621
6756.67,0.10741
6733.52,0.10264
6710.37,0.10770
6687.23,0.10488
6664.08,0.10064
6640.94,0.10374
6617.79,0.10029
6594.64,0.09914
6571.5,0.10555
6548.35,0.10348
6525.21,0.10247
6502.06,0.10716
6478.92,0.10338
6455.77,0.10160
6432.62,0.10242
6409.48,0.10360
6386.33,0.10228
6363.19,0.09890
6340.04,0.10644
6316.89,0.09618
6293.75,0.10372
6270.6,0.10183
6247.46,0.10885
6224.31,0.10315
6201.16,0.10427
6178.02,0.10849
6154.87,0.10474
6131.73,0.10456
6108.58,0.10413
6085.44,0.10258
6062.29,0.10152
6039.14,0.09936
6016,0.10244
5992.85,0.10259
5969.71,0.10042
5946.56,0.09898
5923.41,0.10116
5900.27,0.09919
5877.12,0.09941
5853.98,0.10026
5830.83,0.09325
5807.68,0.08987
5784.54,0.08658
5761.39,0.08968
5738.25,0.09403
5715.1,0.09679
5691.96,0.09673
5668.81,0.09353
5645.66,0.09584
5622.52,0.09806
5599.37,0.10116
5576.23,0.10172
5553.08,0.09894
5529.93,0.09840
5506.79,0.09834
5483.64,0.10073
5460.5,0.10110
5437.35,0.09895
5414.21,0.10132
5391.06,0.10072
5367.91,0.10136
5344.77,0.10054
5321.62,0.10169
5298.48,0.10036
5275.33,0.10080
5252.18,0.10190
5229.04,0.10192
5205.89,0.10231
5182.75,0.10133
5159.6,0.10094
5136.45,0.10184
5113.31,0.10169
5090.16,0.10313
5067.02,0.10374
5043.87,0.10221
5020.73,0.10275
4997.58,0.10175
4974.43,0.10268
4951.29,0.10191
4928.14,0.10180
4905,0.10327
4881.85,0.10224
4858.7,0.10452
4835.56,0.10293
4812.41,0.10308
4789.27,0.10347
4766.12,0.10378
4742.97,0.10485
4719.83,0.10289
4696.68,0.10203
4673.54,0.10310
4650.39,0.10279
4627.25,0.10213
4604.1,0.10280
4580.95,0.10284
4557.81,0.10369
4534.66,0.10377
4511.52,0.10341
4488.37,0.10200
4465.22,0.10017
4442.08,0.09705
4418.93,0.09449
4395.79,0.09044
4372.64,0.08393
4349.49,0.07492
4326.35,0.06532
4303.2,0.07979
4280.06,0.07840
4256.91,0.06993
4233.77,0.07632
4210.62,0.07413
4187.47,0.07237
4164.33,0.07294
4141.18,0.07341
4118.04,0.07409
4094.89,0.07533
4071.74,0.08042
4048.6,0.08176
4025.45,0.08288
4002.31,0.08619
3979.16,0.08571
3956.02,0.08671
3932.87,0.08658
3909.72,0.08556
3886.58,0.08693
3863.43,0.08897
3840.29,0.08944
3817.14,0.09054
3793.99,0.09255
3770.85,0.09314
3747.7,0.09310
3724.56,0.09288
3701.41,0.09032
3678.26,0.08799
3655.12,0.08582
3631.97,0.08809
3608.83,0.08412
3585.68,0.09350
3562.54,0.09564
3539.39,0.09601
3516.24,0.09573
3493.1,0.09335
3469.95,0.08602
3446.81,0.08358
3423.66,0.09116
3400.51,0.09302
3377.37,0.09230
3354.22,0.09271
3331.08,0.09241
3307.93,0.09264
3284.78,0.09145
3261.64,0.09094
3238.49,0.09124
3215.35,0.09021
3192.2,0.08902
3169.06,0.08724
3145.91,0.08564
3122.76,0.08194
3099.62,0.07437
3076.47,0.06681
3053.33,0.06216
3030.18,0.05834
3007.03,0.05598
2983.89,0.05362
2960.74,0.04914
2937.6,0.04102
2914.45,0.09083
2891.31,0.07076
2868.16,0.06131
2845.01,0.08662
2821.87,0.06928
2798.72,0.06983
2775.58,0.07048
2752.43,0.06973
2729.28,0.06861
2706.14,0.06943
2682.99,0.06859
2659.85,0.07050
2636.7,0.07065
2613.55,0.07464
2590.41,0.07903
2567.26,0.08287
2544.12,0.08478
2520.97,0.08630
2497.83,0.08832
2474.68,0.08881
2451.53,0.09421
2428.39,0.09549
2405.24,0.09449
2382.1,0.09416
2358.95,0.09067
2335.8,0.08538
2312.66,0.08582
2289.51,0.08768
2266.37,0.08980
2243.22,0.09162
2220.07,0.09578
2196.93,0.09614
2173.78,0.09522
2150.64,0.09475
2127.49,0.09724
2104.35,0.09598
2081.2,0.09366
2058.05,0.09029
2034.91,0.08713
2011.76,0.08913
1988.62,0.09637
1965.47,0.09655
1942.32,0.09510
1919.18,0.09269
1896.03,0.08728
1872.89,0.08723
1849.74,0.08718
1826.6,0.08298
1803.45,0.07490
1780.3,0.07008
1757.16,0.06601
1734.01,0.06112
1710.87,0.06081
1687.72,0.06536
1664.57,0.07593
1641.43,0.07373
1618.28,0.07805
1595.14,0.08081
1571.99,0.08195
1548.84,0.07915
1525.7,0.07476
1502.55,0.07256
1479.41,0.05675
1456.26,0.06565
1433.12,0.06240
1409.97,0.06193
1386.82,0.05549
1363.68,0.05916
1340.53,0.06137
1317.39,0.06334
1294.24,0.06430
1271.09,0.06881
1247.95,0.06492
1224.8,0.05326
1201.66,0.06009
1178.51,0.06190
1155.36,0.06178
1132.22,0.06095
1109.07,0.06314
1085.93,0.06294
1062.78,0.06430
1039.64,0.06567
1016.49,0.06383
993.344,0.06328
970.198,0.06285
947.052,0.06297
923.906,0.07149
900.76,0.07691
877.614,0.07335
854.468,0.07045
831.323,0.07224
808.177,0.07679
785.031,0.08747
761.885,0.08649
738.739,0.05762
715.593,0.06434
692.447,0.10427
669.301,0.08937
646.156,0.05999
623.01,0.06158
599.864,0.05774