File: 01_Data/PEVA/FTIR/IS/PEVA_0.18_IS_T_240809_R2.dpt
7497.33,0.04819
7474.19,0.03647
7451.04,0.03830
7427.9,0.03756
7404.75,0.02701
7381.6,0.03749
7358.46,0.03830
7335.31,0.03203
7312.17,0.03878
7289.02,0.03057
7265.87,0.03882
7242.73,0.03017
7219.58,0.03453
7196.44,0.02050
7173.29,0.02796
7150.15,0.03012
7127,0.02772
7103.85,0.03309
7080.71,0.02863
7057.56,0.03249
7034.42,0.02820
7011.27,0.02657
6988.12,0.03557
6964.98,0.04123
6941.83,0.03090
6918.69,0.04366
6895.54,0.03547
6872.39,0.03466
6849.25,0.03268
6826.1,0.03679
6802.96,0.02484
6779.81,0.03131
6756.67,0.02909
6733.52,0.03871
6710.37,0.03407
6687.23,0.03176
6664.08,0.03398
6640.94,0.02768
6617.79,0.03885
6594.64,0.02902
6571.5,0.02786
6548.35,0.03183
6525.21,0.02453
6502.06,0.03279
6478.92,0.03701
6455.77,0.03080
6432.62,0.03488
6409.48,0.03099
6386.33,0.02727
6363.19,0.02908
6340.04,0.03694
6316.89,0.02946
6293.75,0.03277
6270.6,0.02832
6247.46,0.02962
6224.31,0.03325
6201.16,0.02588
6178.02,0.03051
6154.87,0.03209
6131.73,0.02912
6108.58,0.03076
6085.44,0.02579
6062.29,0.02819
6039.14,0.02968
6016,0.02702
5992.85,0.03158
5969.71,0.03033
5946.56,0.03245
5923.41,0.02736
5900.27,0.03044
5877.12,0.03116
5853.98,0.03132
5830.83,0.03245
5807.68,0.02753
5784.54,0.03089
5761.39,0.03153
5738.25,0.03107
5715.1,0.02768
5691.96,0.03011
5668.81,0.03124
5645.66,0.02938
5622.52,0.03068
5599.37,0.02996
5576.23,0.02862
5553.08,0.03001
5529.93,0.03122
5506.79,0.03144
5483.64,0.03091
5460.5,0.03065
5437.35,0.03110
5414.21,0.02731
5391.06,0.03089
5367.91,0.02890
5344.77,0.02931
5321.62,0.02916
5298.48,0.03323
5275.33,0.03038
5252.18,0.02879
5229.04,0.03016
5205.89,0.02887
5182.75,0.03057
5159.6,0.02997
5136.45,0.03134
5113.31,0.03106
5090.16,0.02983
5067.02,0.02925
5043.87,0.03113
5020.73,0.03135
4997.58,0.03024
4974.43,0.02996
4951.29,0.03069
4928.14,0.03010
4905,0.03101
4881.85,0.02926
4858.7,0.02977
4835.56,0.03120
4812.41,0.03123
4789.27,0.03098
4766.12,0.03065
4742.97,0.02991
4719.83,0.03007
4696.68,0.03010
4673.54,0.03074
4650.39,0.03042
4627.25,0.02979
4604.1,0.03158
4580.95,0.03156
4557.81,0.03075
4534.66,0.02974
4511.52,0.02892
4488.37,0.03100
4465.22,0.03045
4442.08,0.02898
4418.93,0.02993
4395.79,0.02956
4372.64,0.03006
4349.49,0.03058
4326.35,0.03009
4303.2,0.03047
4280.06,0.03022
4256.91,0.02946
4233.77,0.03033
4210.62,0.03045
4187.47,0.03076
4164.33,0.03054
4141.18,0.03015
4118.04,0.02999
4094.89,0.03071
4071.74,0.03011
4048.6,0.03058
4025.45,0.03013
4002.31,0.03008
3979.16,0.03065
3956.02,0.03012
3932.87,0.03062
3909.72,0.03071
3886.58,0.02945
3863.43,0.03123
3840.29,0.02920
3817.14,0.03044
3793.99,0.02925
3770.85,0.03116
3747.7,0.03058
3724.56,0.03116
3701.41,0.02994
3678.26,0.03062
3655.12,0.02919
3631.97,0.02868
3608.83,0.02838
3585.68,0.02880
3562.54,0.02816
3539.39,0.02732
3516.24,0.02633
3493.1,0.02680
3469.95,0.02663
3446.81,0.02636
3423.66,0.02747
3400.51,0.02650
3377.37,0.02660
3354.22,0.02677
3331.08,0.02612
3307.93,0.02644
3284.78,0.02710
3261.64,0.02685
3238.49,0.02658
3215.35,0.02697
3192.2,0.02685
3169.06,0.02732
3145.91,0.02721
3122.76,0.02696
3099.62,0.02752
3076.47,0.02666
3053.33,0.02665
3030.18,0.02739
3007.03,0.02712
2983.89,0.02625
2960.74,0.02578
2937.6,0.02603
2914.45,0.02645
2891.31,0.02621
2868.16,0.02701
2845.01,0.02788
2821.87,0.02724
2798.72,0.02776
2775.58,0.02784
2752.43,0.02756
2729.28,0.02750
2706.14,0.02725
2682.99,0.02780
2659.85,0.02777
2636.7,0.02702
2613.55,0.02748
2590.41,0.02763
2567.26,0.02709
2544.12,0.02744
2520.97,0.02723
2497.83,0.02708
2474.68,0.02726
2451.53,0.02693
2428.39,0.02700
2405.24,0.02742
2382.1,0.02755
2358.95,0.02673
2335.8,0.02745
2312.66,0.02680
2289.51,0.02737
2266.37,0.02652
2243.22,0.02642
2220.07,0.02662
2196.93,0.02634
2173.78,0.02654
2150.64,0.02620
2127.49,0.02630
2104.35,0.02633
2081.2,0.02578
2058.05,0.02624
2034.91,0.02655
2011.76,0.02606
1988.62,0.02622
1965.47,0.02620
1942.32,0.02551
1919.18,0.02596
1896.03,0.02515
1872.89,0.02554
1849.74,0.02486
1826.6,0.02487
1803.45,0.02415
1780.3,0.02356
1757.16,0.02187
1734.01,0.02367
1710.87,0.02441
1687.72,0.02326
1664.57,0.02165
1641.43,0.02189
1618.28,0.02282
1595.14,0.02258
1571.99,0.02214
1548.84,0.02207
1525.7,0.02234
1502.55,0.02205
1479.41,0.02203
1456.26,0.02103
1433.12,0.02223
1409.97,0.02153
1386.82,0.02090
1363.68,0.02112
1340.53,0.02064
1317.39,0.02035
1294.24,0.02061
1271.09,0.02266
1247.95,0.02276
1224.8,0.02197
1201.66,0.02143
1178.51,0.02093
1155.36,0.01989
1132.22,0.02065
1109.07,0.02221
1085.93,0.02254
1062.78,0.02447
1039.64,0.02400
1016.49,0.02356
993.344,0.02392
970.198,0.02411
947.052,0.02314
923.906,0.02267
900.76,0.02224
877.614,0.02207
854.468,0.02241
831.323,0.02177
808.177,0.02124
785.031,0.02040
761.885,0.02001
738.739,0.02058
715.593,0.01964
692.447,0.01944
669.301,0.01856
646.156,0.01940
623.01,0.02100
599.864,0.01827