File: 01_Data/PEVA/FTIR/IS/PEVA_0.10_IS_S_240808_R6.dpt
7496.93,0.10421
7473.78,0.09897
7450.64,0.09520
7427.49,0.10924
7404.35,0.08833
7381.2,0.11115
7358.06,0.08427
7334.91,0.09861
7311.77,0.09284
7288.62,0.09537
7265.48,0.10038
7242.34,0.09183
7219.19,0.09201
7196.05,0.08889
7172.9,0.10441
7149.76,0.09040
7126.61,0.11386
7103.47,0.09195
7080.32,0.09464
7057.18,0.10438
7034.03,0.09819
7010.89,0.09019
6987.74,0.10099
6964.6,0.09261
6941.46,0.10093
6918.31,0.09987
6895.17,0.09612
6872.02,0.09998
6848.88,0.09758
6825.73,0.09246
6802.59,0.09672
6779.44,0.10156
6756.3,0.09453
6733.15,0.09045
6710.01,0.09184
6686.86,0.09640
6663.72,0.09603
6640.58,0.09799
6617.43,0.09198
6594.29,0.10282
6571.14,0.09450
6548,0.09940
6524.85,0.09054
6501.71,0.09908
6478.56,0.09755
6455.42,0.09052
6432.27,0.09968
6409.13,0.09402
6385.98,0.09469
6362.84,0.09660
6339.7,0.09659
6316.55,0.09738
6293.41,0.09649
6270.26,0.09348
6247.12,0.09187
6223.97,0.09928
6200.83,0.09895
6177.68,0.09480
6154.54,0.09626
6131.39,0.09807
6108.25,0.09822
6085.1,0.09526
6061.96,0.09812
6038.82,0.09509
6015.67,0.09484
5992.53,0.09689
5969.38,0.09611
5946.24,0.09418
5923.09,0.09692
5899.95,0.09410
5876.8,0.09703
5853.66,0.09459
5830.51,0.09301
5807.37,0.08589
5784.22,0.08555
5761.08,0.09019
5737.94,0.09378
5714.79,0.09455
5691.65,0.08936
5668.5,0.09031
5645.36,0.09378
5622.21,0.09312
5599.07,0.09634
5575.92,0.09512
5552.78,0.09586
5529.63,0.09529
5506.49,0.09718
5483.34,0.09664
5460.2,0.09808
5437.06,0.09547
5413.91,0.09557
5390.77,0.09325
5367.62,0.09805
5344.48,0.09817
5321.33,0.09767
5298.19,0.09710
5275.04,0.09824
5251.9,0.09835
5228.75,0.09761
5205.61,0.09715
5182.46,0.09765
5159.32,0.09805
5136.18,0.09775
5113.03,0.09830
5089.89,0.09733
5066.74,0.09890
5043.6,0.09915
5020.45,0.09739
4997.31,0.09854
4974.16,0.09907
4951.02,0.09907
4927.87,0.09928
4904.73,0.09882
4881.58,0.09983
4858.44,0.09981
4835.3,0.09907
4812.15,0.09976
4789.01,0.09937
4765.86,0.09823
4742.72,0.10001
4719.57,0.10001
4696.43,0.10002
4673.28,0.10073
4650.14,0.09980
4626.99,0.09942
4603.85,0.10038
4580.7,0.09949
4557.56,0.09932
4534.42,0.09938
4511.27,0.09954
4488.13,0.09849
4464.98,0.09934
4441.84,0.09779
4418.69,0.09615
4395.55,0.09205
4372.4,0.08748
4349.26,0.08031
4326.11,0.06698
4302.97,0.08308
4279.82,0.08366
4256.68,0.07250
4233.54,0.08066
4210.39,0.07908
4187.25,0.07463
4164.1,0.07556
4140.96,0.07697
4117.81,0.07717
4094.67,0.07726
4071.52,0.08306
4048.38,0.08398
4025.23,0.08547
4002.09,0.09019
3978.94,0.08950
3955.8,0.08956
3932.66,0.08963
3909.51,0.08825
3886.37,0.08893
3863.22,0.09024
3840.08,0.09032
3816.93,0.09092
3793.79,0.09278
3770.64,0.09212
3747.5,0.09173
3724.35,0.09242
3701.21,0.09119
3678.06,0.09172
3654.92,0.09046
3631.78,0.08973
3608.63,0.08563
3585.49,0.09312
3562.34,0.09490
3539.2,0.09562
3516.05,0.09656
3492.91,0.09486
3469.76,0.09425
3446.62,0.09367
3423.47,0.09344
3400.33,0.09307
3377.18,0.09220
3354.04,0.09267
3330.9,0.09169
3307.75,0.09351
3284.61,0.09307
3261.46,0.09277
3238.32,0.09296
3215.17,0.09207
3192.03,0.08988
3168.88,0.08951
3145.74,0.08756
3122.59,0.08489
3099.45,0.07877
3076.3,0.07278
3053.16,0.06768
3030.02,0.06159
3006.87,0.05653
2983.73,0.05164
2960.58,0.04611
2937.44,0.03913
2914.29,0.08799
2891.15,0.06821
2868,0.05895
2844.86,0.08409
2821.71,0.06785
2798.57,0.06668
2775.42,0.07071
2752.28,0.07344
2729.14,0.07337
2705.99,0.07436
2682.85,0.07327
2659.7,0.07223
2636.56,0.07316
2613.41,0.07698
2590.27,0.08131
2567.12,0.08788
2543.98,0.08952
2520.83,0.09001
2497.69,0.09496
2474.55,0.09561
2451.4,0.09604
2428.26,0.09611
2405.11,0.09661
2381.97,0.09518
2358.82,0.09281
2335.68,0.08976
2312.53,0.09122
2289.39,0.09401
2266.24,0.09749
2243.1,0.09527
2219.95,0.09731
2196.81,0.09934
2173.67,0.09683
2150.52,0.09606
2127.38,0.09965
2104.23,0.09813
2081.09,0.09785
2057.94,0.09782
2034.8,0.09405
2011.65,0.09425
1988.51,0.09944
1965.36,0.09831
1942.22,0.09778
1919.07,0.09770
1895.93,0.09437
1872.79,0.09826
1849.64,0.09920
1826.5,0.09838
1803.35,0.09773
1780.21,0.09646
1757.06,0.09419
1733.92,0.09206
1710.77,0.09168
1687.63,0.09593
1664.48,0.09292
1641.34,0.09068
1618.19,0.09420
1595.05,0.09017
1571.91,0.08823
1548.76,0.09200
1525.62,0.08641
1502.47,0.07578
1479.33,0.05716
1456.18,0.06056
1433.04,0.06477
1409.89,0.08079
1386.75,0.07464
1363.6,0.06971
1340.46,0.07259
1317.31,0.07135
1294.17,0.08168
1271.03,0.07701
1247.88,0.07997
1224.74,0.09748
1201.59,0.08236
1178.45,0.08021
1155.3,0.09962
1132.16,0.08015
1109.01,0.08519
1085.87,0.10150
1062.72,0.07848
1039.58,0.09128
1016.43,0.10680
993.29,0.07780
970.145,0.09700
947,0.11111
923.856,0.07047
900.711,0.10253
877.567,0.11038
854.422,0.06591
831.277,0.10624
808.133,0.10760
784.988,0.05794
761.844,0.09210
738.699,0.08397
715.554,0.06824
692.41,0.11900
669.265,0.06054
646.12,0.09158
622.976,0.14108
599.831,0.06373