File: 01_Data/PEVA/FTIR/IS/PEVA_0.10_IS_Trans_S_240819_R9.dpt
7496.91,0.93029
7473.76,0.93119
7450.62,0.94604
7427.47,0.94318
7404.33,0.94492
7381.18,0.92489
7358.04,0.92639
7334.89,0.92181
7311.75,0.93472
7288.61,0.92047
7265.46,0.91783
7242.32,0.91483
7219.17,0.91428
7196.03,0.92315
7172.88,0.91497
7149.74,0.93933
7126.59,0.92358
7103.45,0.93176
7080.3,0.93050
7057.16,0.91647
7034.02,0.93742
7010.87,0.92578
6987.73,0.93176
6964.58,0.92919
6941.44,0.92920
6918.29,0.93839
6895.15,0.93514
6872,0.93309
6848.86,0.92968
6825.71,0.93156
6802.57,0.93312
6779.43,0.92625
6756.28,0.93191
6733.14,0.93152
6709.99,0.93063
6686.85,0.93803
6663.7,0.92736
6640.56,0.93688
6617.41,0.93270
6594.27,0.92938
6571.12,0.93918
6547.98,0.93616
6524.84,0.93418
6501.69,0.94490
6478.55,0.93189
6455.4,0.93461
6432.26,0.93410
6409.11,0.93897
6385.97,0.93332
6362.82,0.93606
6339.68,0.93465
6316.53,0.93908
6293.39,0.93570
6270.24,0.92988
6247.1,0.93175
6223.96,0.93616
6200.81,0.93520
6177.67,0.94012
6154.52,0.93192
6131.38,0.93767
6108.23,0.92966
6085.09,0.93411
6061.94,0.93038
6038.8,0.93038
6015.65,0.92480
5992.51,0.93272
5969.37,0.92215
5946.22,0.92019
5923.08,0.92067
5899.93,0.91385
5876.79,0.90701
5853.64,0.89237
5830.5,0.86453
5807.35,0.84211
5784.21,0.78852
5761.06,0.82487
5737.92,0.87381
5714.78,0.88858
5691.63,0.87373
5668.49,0.85197
5645.34,0.87948
5622.2,0.89186
5599.05,0.89858
5575.91,0.89982
5552.76,0.89050
5529.62,0.89748
5506.47,0.89099
5483.33,0.89433
5460.19,0.89016
5437.04,0.89460
5413.9,0.88671
5390.75,0.90540
5367.61,0.91038
5344.46,0.89199
5321.32,0.91352
5298.17,0.91155
5275.03,0.91197
5251.88,0.90737
5228.74,0.90756
5205.6,0.89818
5182.45,0.91257
5159.31,0.91127
5136.16,0.91594
5113.02,0.91767
5089.87,0.91713
5066.73,0.91733
5043.58,0.91991
5020.44,0.91780
4997.29,0.91872
4974.15,0.91523
4951.01,0.91634
4927.86,0.91879
4904.72,0.91830
4881.57,0.91687
4858.43,0.91913
4835.28,0.92274
4812.14,0.92126
4788.99,0.92341
4765.85,0.92501
4742.7,0.92334
4719.56,0.92688
4696.42,0.92705
4673.27,0.92351
4650.13,0.92706
4626.98,0.92449
4603.84,0.92470
4580.69,0.92628
4557.55,0.92206
4534.4,0.91995
4511.26,0.91989
4488.11,0.91324
4464.97,0.90733
4441.83,0.89899
4418.68,0.87942
4395.54,0.83777
4372.39,0.78391
4349.25,0.67009
4326.1,0.40199
4302.96,0.72140
4279.81,0.70902
4256.67,0.53147
4233.52,0.67164
4210.38,0.64018
4187.24,0.58506
4164.09,0.59513
4140.95,0.60455
4117.8,0.61818
4094.66,0.62092
4071.51,0.69630
4048.37,0.72928
4025.22,0.74134
4002.08,0.78503
3978.93,0.78425
3955.79,0.79281
3932.65,0.77270
3909.5,0.77616
3886.36,0.76496
3863.21,0.76628
3840.07,0.75960
3816.92,0.76944
3793.78,0.81380
3770.63,0.81319
3747.49,0.78099
3724.34,0.80134
3701.2,0.80944
3678.06,0.79058
3654.91,0.78901
3631.77,0.78772
3608.62,0.73635
3585.48,0.83397
3562.33,0.86524
3539.19,0.88699
3516.04,0.89256
3492.9,0.88872
3469.75,0.88135
3446.61,0.86890
3423.47,0.87087
3400.32,0.86929
3377.18,0.86432
3354.03,0.86608
3330.89,0.87349
3307.74,0.87609
3284.6,0.87818
3261.45,0.87391
3238.31,0.87015
3215.16,0.86129
3192.02,0.84847
3168.87,0.83631
3145.73,0.82085
3122.59,0.79324
3099.44,0.72209
3076.3,0.61697
3053.15,0.54201
3030.01,0.42304
3006.86,0.31967
2983.72,0.14228
2960.57,0.00167
2937.43,0.00027
2914.28,0.00085
2891.14,0.00068
2868,0.00087
2844.85,0.00099
2821.71,0.04051
2798.56,0.17663
2775.42,0.35496
2752.27,0.43973
2729.13,0.45256
2705.98,0.50312
2682.84,0.48602
2659.69,0.46450
2636.55,0.47664
2613.41,0.56741
2590.26,0.64354
2567.12,0.71323
2543.97,0.75147
2520.83,0.77478
2497.68,0.81217
2474.54,0.82305
2451.39,0.84846
2428.25,0.83945
2405.1,0.83559
2381.96,0.82140
2358.82,0.68920
2335.67,0.67849
2312.53,0.75163
2289.38,0.81466
2266.24,0.84124
2243.09,0.85349
2219.95,0.86556
2196.8,0.87055
2173.66,0.87302
2150.51,0.85478
2127.37,0.88095
2104.23,0.89149
2081.08,0.87668
2057.94,0.86675
2034.79,0.84336
2011.65,0.83268
1988.5,0.88197
1965.36,0.88818
1942.21,0.86693
1919.07,0.86439
1895.92,0.84552
1872.78,0.87817
1849.64,0.89353
1826.49,0.88189
1803.35,0.86746
1780.2,0.87371
1757.06,0.84078
1733.91,0.77508
1710.77,0.78380
1687.62,0.83992
1664.48,0.83590
1641.33,0.83041
1618.19,0.82377
1595.05,0.81107
1571.9,0.80884
1548.76,0.79543
1525.61,0.73133
1502.47,0.66740
1479.32,0.28228
1456.18,0.01979
1433.03,0.30685
1409.89,0.69789
1386.74,0.65509
1363.6,0.40865
1340.46,0.58084
1317.31,0.60970
1294.17,0.58855
1271.02,0.65815
1247.88,0.71943
1224.73,0.75337
1201.59,0.75482
1178.44,0.74584
1155.3,0.74959
1132.15,0.76728
1109.01,0.76569
1085.87,0.72853
1062.72,0.75552
1039.58,0.77171
1016.43,0.71821
993.287,0.81955
970.142,0.80234
946.998,0.83687
923.853,0.84450
900.709,0.82788
877.564,0.85272
854.42,0.85296
831.275,0.82499
808.131,0.83246
784.986,0.78048
761.842,0.71437
738.697,0.50932
715.552,0.13271
692.408,0.79944
669.263,0.83656
646.119,0.87048
622.974,0.89604
599.83,0.94302