File: 01_Data/PEVA/FTIR/IS/PEVA_0.18_IS_T_240809_R8.dpt
7497.33,0.03710
7474.19,0.03626
7451.04,0.03656
7427.9,0.04676
7404.75,0.03847
7381.6,0.02085
7358.46,0.03348
7335.31,0.03397
7312.17,0.04188
7289.02,0.04118
7265.87,0.03261
7242.73,0.03702
7219.58,0.04237
7196.44,0.04272
7173.29,0.02892
7150.15,0.03541
7127,0.02463
7103.85,0.03286
7080.71,0.03119
7057.56,0.03046
7034.42,0.03772
7011.27,0.03606
6988.12,0.03195
6964.98,0.03319
6941.83,0.03537
6918.69,0.04181
6895.54,0.03524
6872.39,0.03558
6849.25,0.03230
6826.1,0.03407
6802.96,0.03791
6779.81,0.03356
6756.67,0.03228
6733.52,0.03289
6710.37,0.03026
6687.23,0.02584
6664.08,0.03258
6640.94,0.02508
6617.79,0.03299
6594.64,0.02861
6571.5,0.03061
6548.35,0.02883
6525.21,0.03061
6502.06,0.02930
6478.92,0.03318
6455.77,0.03743
6432.62,0.02675
6409.48,0.03656
6386.33,0.03350
6363.19,0.03231
6340.04,0.03272
6316.89,0.03069
6293.75,0.03482
6270.6,0.02838
6247.46,0.03072
6224.31,0.03142
6201.16,0.03213
6178.02,0.03309
6154.87,0.03066
6131.73,0.03117
6108.58,0.02878
6085.44,0.03008
6062.29,0.03084
6039.14,0.03096
6016,0.02795
5992.85,0.03361
5969.71,0.02794
5946.56,0.03090
5923.41,0.02952
5900.27,0.03035
5877.12,0.02778
5853.98,0.03357
5830.83,0.02776
5807.68,0.03006
5784.54,0.03429
5761.39,0.02973
5738.25,0.02962
5715.1,0.03023
5691.96,0.02895
5668.81,0.03083
5645.66,0.03175
5622.52,0.03009
5599.37,0.02985
5576.23,0.03119
5553.08,0.03073
5529.93,0.03099
5506.79,0.02838
5483.64,0.02961
5460.5,0.03225
5437.35,0.02774
5414.21,0.03033
5391.06,0.02914
5367.91,0.03315
5344.77,0.03094
5321.62,0.02971
5298.48,0.03124
5275.33,0.03031
5252.18,0.03048
5229.04,0.02910
5205.89,0.02980
5182.75,0.02915
5159.6,0.02975
5136.45,0.03091
5113.31,0.03024
5090.16,0.03086
5067.02,0.02969
5043.87,0.03067
5020.73,0.03194
4997.58,0.03043
4974.43,0.03007
4951.29,0.03100
4928.14,0.03040
4905,0.02879
4881.85,0.03034
4858.7,0.03096
4835.56,0.03104
4812.41,0.03128
4789.27,0.03079
4766.12,0.03018
4742.97,0.03037
4719.83,0.02832
4696.68,0.02960
4673.54,0.02982
4650.39,0.03045
4627.25,0.02999
4604.1,0.03002
4580.95,0.03055
4557.81,0.03006
4534.66,0.02976
4511.52,0.03080
4488.37,0.02944
4465.22,0.02959
4442.08,0.03064
4418.93,0.03040
4395.79,0.03041
4372.64,0.03002
4349.49,0.02891
4326.35,0.02964
4303.2,0.03009
4280.06,0.02933
4256.91,0.02943
4233.77,0.02922
4210.62,0.02987
4187.47,0.02977
4164.33,0.02998
4141.18,0.02967
4118.04,0.02976
4094.89,0.02985
4071.74,0.02966
4048.6,0.03048
4025.45,0.03021
4002.31,0.02867
3979.16,0.02956
3956.02,0.02953
3932.87,0.03059
3909.72,0.02981
3886.58,0.03052
3863.43,0.02943
3840.29,0.03016
3817.14,0.02988
3793.99,0.02945
3770.85,0.03025
3747.7,0.03132
3724.56,0.02871
3701.41,0.02893
3678.26,0.03025
3655.12,0.02826
3631.97,0.02700
3608.83,0.02752
3585.68,0.02730
3562.54,0.02727
3539.39,0.02708
3516.24,0.02659
3493.1,0.02672
3469.95,0.02561
3446.81,0.02570
3423.66,0.02553
3400.51,0.02581
3377.37,0.02591
3354.22,0.02566
3331.08,0.02559
3307.93,0.02585
3284.78,0.02666
3261.64,0.02651
3238.49,0.02583
3215.35,0.02658
3192.2,0.02624
3169.06,0.02636
3145.91,0.02619
3122.76,0.02653
3099.62,0.02656
3076.47,0.02655
3053.33,0.02672
3030.18,0.02635
3007.03,0.02615
2983.89,0.02619
2960.74,0.02510
2937.6,0.02533
2914.45,0.02596
2891.31,0.02618
2868.16,0.02631
2845.01,0.02718
2821.87,0.02681
2798.72,0.02735
2775.58,0.02726
2752.43,0.02681
2729.28,0.02688
2706.14,0.02715
2682.99,0.02709
2659.85,0.02650
2636.7,0.02684
2613.55,0.02657
2590.41,0.02735
2567.26,0.02686
2544.12,0.02657
2520.97,0.02649
2497.83,0.02652
2474.68,0.02696
2451.53,0.02670
2428.39,0.02669
2405.24,0.02586
2382.1,0.02698
2358.95,0.02721
2335.8,0.02673
2312.66,0.02650
2289.51,0.02616
2266.37,0.02621
2243.22,0.02615
2220.07,0.02584
2196.93,0.02558
2173.78,0.02582
2150.64,0.02531
2127.49,0.02581
2104.35,0.02554
2081.2,0.02524
2058.05,0.02532
2034.91,0.02509
2011.76,0.02560
1988.62,0.02553
1965.47,0.02513
1942.32,0.02523
1919.18,0.02532
1896.03,0.02506
1872.89,0.02475
1849.74,0.02483
1826.6,0.02422
1803.45,0.02372
1780.3,0.02302
1757.16,0.02138
1734.01,0.02312
1710.87,0.02413
1687.72,0.02334
1664.57,0.02190
1641.43,0.02163
1618.28,0.02237
1595.14,0.02242
1571.99,0.02166
1548.84,0.02119
1525.7,0.02197
1502.55,0.02165
1479.41,0.02145
1456.26,0.02071
1433.12,0.02177
1409.97,0.02115
1386.82,0.02055
1363.68,0.02075
1340.53,0.02030
1317.39,0.01949
1294.24,0.02023
1271.09,0.02133
1247.95,0.02225
1224.8,0.02167
1201.66,0.02095
1178.51,0.02012
1155.36,0.02003
1132.22,0.02077
1109.07,0.02210
1085.93,0.02181
1062.78,0.02357
1039.64,0.02291
1016.49,0.02287
993.344,0.02345
970.198,0.02356
947.052,0.02258
923.906,0.02254
900.76,0.02222
877.614,0.02150
854.468,0.02119
831.323,0.02164
808.177,0.02067
785.031,0.02031
761.885,0.02008
738.739,0.02085
715.593,0.01968
692.447,0.02017
669.301,0.01823
646.156,0.01820
623.01,0.01845
599.864,0.02151