File: 01_Data/PEVA/FTIR/IS/PEVA_0.18_IS_Trans_S_240819_R2.dpt
7496.91,0.93866
7473.76,0.92663
7450.62,0.94174
7427.47,0.92012
7404.33,0.94099
7381.18,0.91891
7358.04,0.93166
7334.89,0.93689
7311.75,0.91318
7288.61,0.93009
7265.46,0.92109
7242.32,0.89574
7219.17,0.92182
7196.03,0.92000
7172.88,0.89778
7149.74,0.92280
7126.59,0.92369
7103.45,0.91442
7080.3,0.91834
7057.16,0.91587
7034.02,0.92119
7010.87,0.92000
6987.73,0.91254
6964.58,0.91945
6941.44,0.92087
6918.29,0.91716
6895.15,0.92007
6872,0.92685
6848.86,0.92378
6825.71,0.93329
6802.57,0.93139
6779.43,0.93991
6756.28,0.93236
6733.14,0.93800
6709.99,0.93462
6686.85,0.93490
6663.7,0.93564
6640.56,0.93722
6617.41,0.94174
6594.27,0.93297
6571.12,0.93757
6547.98,0.93299
6524.84,0.93251
6501.69,0.93476
6478.55,0.93167
6455.4,0.93778
6432.26,0.94255
6409.11,0.93751
6385.97,0.93657
6362.82,0.94133
6339.68,0.94120
6316.53,0.93670
6293.39,0.93569
6270.24,0.94033
6247.1,0.93514
6223.96,0.93694
6200.81,0.93494
6177.67,0.93559
6154.52,0.93116
6131.38,0.92934
6108.23,0.92991
6085.09,0.93017
6061.94,0.92833
6038.8,0.92627
6015.65,0.92223
5992.51,0.92193
5969.37,0.92160
5946.22,0.91250
5923.08,0.91074
5899.93,0.90468
5876.79,0.88673
5853.64,0.85644
5830.5,0.82573
5807.35,0.78817
5784.21,0.73446
5761.06,0.77835
5737.92,0.84411
5714.78,0.85544
5691.63,0.83718
5668.49,0.81269
5645.34,0.85115
5622.2,0.86781
5599.05,0.87502
5575.91,0.87236
5552.76,0.86944
5529.62,0.87326
5506.47,0.86646
5483.33,0.87686
5460.19,0.86964
5437.04,0.87194
5413.9,0.86002
5390.75,0.88546
5367.61,0.89408
5344.46,0.87219
5321.32,0.89993
5298.17,0.89890
5275.03,0.90055
5251.88,0.89336
5228.74,0.89139
5205.6,0.88195
5182.45,0.89626
5159.31,0.89727
5136.16,0.90449
5113.02,0.90415
5089.87,0.90553
5066.73,0.90669
5043.58,0.90922
5020.44,0.90876
4997.29,0.90705
4974.15,0.90334
4951.01,0.90534
4927.86,0.90776
4904.72,0.90770
4881.57,0.90933
4858.43,0.90975
4835.28,0.91153
4812.14,0.91213
4788.99,0.91205
4765.85,0.91068
4742.7,0.91147
4719.56,0.91152
4696.42,0.90789
4673.27,0.90065
4650.13,0.91038
4626.98,0.91321
4603.84,0.91168
4580.69,0.91252
4557.55,0.91080
4534.4,0.90615
4511.26,0.89922
4488.11,0.88639
4464.97,0.87149
4441.83,0.83792
4418.68,0.80768
4395.54,0.75381
4372.39,0.67128
4349.25,0.51127
4326.1,0.27915
4302.96,0.59703
4279.81,0.57639
4256.67,0.38467
4233.52,0.53318
4210.38,0.50399
4187.24,0.45102
4164.09,0.46521
4140.95,0.48353
4117.8,0.50030
4094.66,0.50956
4071.51,0.58461
4048.37,0.61506
4025.22,0.63344
4002.08,0.68950
3978.93,0.68294
3955.79,0.69975
3932.65,0.68491
3909.5,0.69433
3886.36,0.68021
3863.21,0.68066
3840.07,0.67112
3816.92,0.68701
3793.78,0.74508
3770.63,0.74411
3747.49,0.70064
3724.34,0.72771
3701.2,0.74047
3678.06,0.70526
3654.91,0.69927
3631.77,0.69625
3608.62,0.64982
3585.48,0.75967
3562.33,0.79352
3539.19,0.82345
3516.04,0.82766
3492.9,0.81772
3469.75,0.72683
3446.61,0.69078
3423.47,0.79479
3400.32,0.80717
3377.18,0.79939
3354.03,0.80765
3330.89,0.81982
3307.74,0.82207
3284.6,0.82135
3261.45,0.81635
3238.31,0.80897
3215.16,0.79082
3192.02,0.76935
3168.87,0.74700
3145.73,0.72301
3122.59,0.67959
3099.44,0.58564
3076.3,0.46089
3053.15,0.36425
3030.01,0.23100
3006.86,0.14118
2983.72,0.03339
2960.57,0.00031
2937.43,0.00063
2914.28,0.00051
2891.14,0.00070
2868,0.00071
2844.85,0.00017
2821.71,0.00853
2798.56,0.07978
2775.42,0.21091
2752.27,0.27376
2729.13,0.29341
2705.98,0.34553
2682.84,0.31649
2659.69,0.32159
2636.55,0.34508
2613.41,0.43343
2590.26,0.51896
2567.12,0.60613
2543.97,0.65459
2520.83,0.67831
2497.68,0.70430
2474.54,0.69084
2451.39,0.74850
2428.25,0.75747
2405.1,0.74524
2381.96,0.72484
2358.82,0.56746
2335.67,0.55976
2312.53,0.63294
2289.38,0.71706
2266.24,0.74472
2243.09,0.76498
2219.95,0.79479
2196.8,0.77896
2173.66,0.75107
2150.51,0.74138
2127.37,0.78740
2104.23,0.79968
2081.08,0.79468
2057.94,0.77390
2034.79,0.73072
2011.65,0.73234
1988.5,0.79307
1965.36,0.78928
1942.21,0.77276
1919.07,0.75549
1895.92,0.70652
1872.78,0.70121
1849.64,0.69553
1826.49,0.62935
1803.35,0.54604
1780.2,0.38117
1757.06,0.04896
1733.91,0.00032
1710.77,0.15377
1687.62,0.33749
1664.48,0.52243
1641.33,0.54985
1618.19,0.63437
1595.05,0.65272
1571.9,0.61045
1548.76,0.57061
1525.61,0.49604
1502.47,0.42515
1479.32,0.10914
1456.18,0.00097
1433.03,0.02252
1409.89,0.26633
1386.74,0.07615
1363.6,0.00243
1340.46,0.21709
1317.31,0.24280
1294.17,0.12633
1271.02,0.01606
1247.88,0.00036
1224.73,0.00027
1201.59,0.08977
1178.44,0.20743
1155.3,0.17864
1132.15,0.12125
1109.01,0.15703
1085.87,0.12541
1062.72,0.07510
1039.58,0.02419
1016.43,0.00152
993.287,0.20676
970.142,0.18251
946.998,0.17151
923.853,0.38526
900.709,0.48497
877.564,0.50413
854.42,0.53341
831.275,0.60387
808.131,0.58710
784.986,0.62459
761.842,0.56535
738.697,0.30755
715.552,0.04968
692.408,0.70100
669.263,0.69328
646.119,0.56998
622.974,0.54297
599.83,0.51536