File: 01_Data/PEVA/FTIR/IS/PEVA_0.18_IS_Trans_T_240819_R3.dpt
7496.91,0.03592
7473.76,0.01645
7450.62,0.01025
7427.47,0.00377
7404.33,0.01187
7381.18,0.02750
7358.04,0.00268
7334.89,0.00971
7311.75,0.01083
7288.61,0.01721
7265.46,0.02721
7242.32,0.00899
7219.17,0.02499
7196.03,-0.00111
7172.88,0.03661
7149.74,0.01405
7126.59,0.01670
7103.45,0.00599
7080.3,0.01364
7057.16,0.01030
7034.02,0.00577
7010.87,0.01002
6987.73,0.02312
6964.58,0.00733
6941.44,0.01635
6918.29,0.01509
6895.15,0.00378
6872,0.01943
6848.86,0.02257
6825.71,0.01026
6802.57,0.01441
6779.43,0.00447
6756.28,0.01240
6733.14,0.00285
6709.99,0.00794
6686.85,0.00379
6663.7,0.01850
6640.56,0.00633
6617.41,0.01671
6594.27,0.01047
6571.12,0.00747
6547.98,0.00285
6524.84,0.00232
6501.69,-0.00183
6478.55,0.00413
6455.4,0.01465
6432.26,0.01016
6409.11,0.01364
6385.97,0.00275
6362.82,0.01067
6339.68,0.00675
6316.53,0.00532
6293.39,0.00649
6270.24,0.00818
6247.1,0.00560
6223.96,0.01671
6200.81,0.00502
6177.67,0.00811
6154.52,0.00760
6131.38,0.00932
6108.23,-0.00052
6085.09,0.00824
6061.94,0.00351
6038.8,0.00394
6015.65,0.00380
5992.51,0.00415
5969.37,0.00522
5946.22,0.00571
5923.08,0.00728
5899.93,0.00549
5876.79,0.00319
5853.64,0.00308
5830.5,0.00672
5807.35,0.00224
5784.21,0.00469
5761.06,0.00262
5737.92,0.00586
5714.78,0.00285
5691.63,0.00207
5668.49,0.00411
5645.34,0.00304
5622.2,0.00723
5599.05,0.00160
5575.91,0.00248
5552.76,0.00212
5529.62,0.00454
5506.47,0.00440
5483.33,0.00511
5460.19,0.00343
5437.04,0.00544
5413.9,0.00552
5390.75,0.00179
5367.61,0.00097
5344.46,0.00129
5321.32,0.00296
5298.17,0.00445
5275.03,0.00357
5251.88,0.00419
5228.74,0.00389
5205.6,-0.00067
5182.45,0.00136
5159.31,0.00287
5136.16,0.00403
5113.02,0.00427
5089.87,0.00204
5066.73,0.00225
5043.58,0.00185
5020.44,0.00210
4997.29,0.00318
4974.15,0.00056
4951.01,0.00207
4927.86,0.00389
4904.72,0.00164
4881.57,0.00289
4858.43,0.00370
4835.28,0.00133
4812.14,0.00066
4788.99,0.00199
4765.85,0.00410
4742.7,0.00137
4719.56,0.00095
4696.42,0.00180
4673.27,0.00020
4650.13,0.00156
4626.98,0.00061
4603.84,0.00212
4580.69,0.00142
4557.55,0.00195
4534.4,0.00213
4511.26,0.00077
4488.11,0.00033
4464.97,0.00139
4441.83,0.00041
4418.68,0.00105
4395.54,0.00103
4372.39,0.00073
4349.25,0.00091
4326.1,0.00041
4302.96,0.00229
4279.81,0.00092
4256.67,-0.00015
4233.52,0.00144
4210.38,0.00103
4187.24,0.00184
4164.09,0.00117
4140.95,0.00163
4117.8,0.00082
4094.66,0.00138
4071.51,0.00095
4048.37,0.00086
4025.22,0.00005
4002.08,0.00074
3978.93,0.00157
3955.79,0.00065
3932.65,0.00023
3909.5,0.00104
3886.36,0.00064
3863.21,0.00112
3840.07,0.00150
3816.92,0.00026
3793.78,0.00070
3770.63,0.00073
3747.49,0.00026
3724.34,0.00140
3701.2,0.00034
3678.06,0.00122
3654.91,0.00174
3631.77,0.00279
3608.62,0.00117
3585.48,0.00205
3562.33,0.00187
3539.19,0.00116
3516.04,0.00216
3492.9,0.00149
3469.75,0.00095
3446.61,0.00141
3423.47,0.00147
3400.32,0.00159
3377.18,0.00110
3354.03,0.00064
3330.89,0.00158
3307.74,0.00071
3284.6,0.00080
3261.45,0.00092
3238.31,0.00093
3215.16,0.00041
3192.02,-0.00017
3168.87,0.00161
3145.73,0.00163
3122.59,0.00101
3099.44,0.00038
3076.3,0.00099
3053.15,0.00011
3030.01,0.00042
3006.86,0.00107
2983.72,0.00079
2960.57,0.00139
2937.43,0.00122
2914.28,0.00075
2891.14,0.00094
2868,0.00054
2844.85,0.00029
2821.71,0.00078
2798.56,0.00054
2775.42,0.00084
2752.27,0.00086
2729.13,0.00082
2705.98,0.00050
2682.84,0.00097
2659.69,0.00023
2636.55,0.00048
2613.41,0.00037
2590.26,0.00039
2567.12,0.00024
2543.97,0.00057
2520.83,0.00066
2497.68,0.00108
2474.54,0.00138
2451.39,0.00080
2428.25,0.00004
2405.1,0.00032
2381.96,0.00020
2358.82,0.00037
2335.67,0.00034
2312.53,0.00096
2289.38,0.00043
2266.24,0.00110
2243.09,0.00003
2219.95,0.00032
2196.8,0.00079
2173.66,0.00012
2150.51,0.00093
2127.37,0.00062
2104.23,0.00036
2081.08,0.00030
2057.94,0.00092
2034.79,0.00115
2011.65,0.00028
1988.5,0.00033
1965.36,0.00080
1942.21,0.00047
1919.07,0.00076
1895.92,0.00031
1872.78,0.00075
1849.64,0.00068
1826.49,0.00072
1803.35,0.00065
1780.2,0.00018
1757.06,0.00058
1733.91,0.00104
1710.77,0.00074
1687.62,0.00019
1664.48,0.00090
1641.33,0.00057
1618.19,0.00114
1595.05,0.00008
1571.9,0.00027
1548.76,0.00081
1525.61,0.00036
1502.47,0.00105
1479.32,0.00088
1456.18,0.00058
1433.03,0.00062
1409.89,0.00055
1386.74,0.00062
1363.6,0.00054
1340.46,0.00029
1317.31,0.00060
1294.17,0.00092
1271.02,0.00054
1247.88,0.00077
1224.73,0.00038
1201.59,0.00028
1178.44,0.00119
1155.3,0.00203
1132.15,0.00155
1109.01,0.00136
1085.87,0.00137
1062.72,0.00091
1039.58,0.00010
1016.43,0.00133
993.287,0.00018
970.142,0.00169
946.998,0.00105
923.853,0.00175
900.709,0.00029
877.564,0.00065
854.42,0.00206
831.275,0.00117
808.131,0.00212
784.986,0.00177
761.842,0.00119
738.697,0.00136
715.552,0.00056
692.408,0.00128
669.263,0.00214
646.119,0.00299
622.974,0.00595
599.83,0.00449