File: 01_Data/PEVA/FTIR/IS/PEVA_0.26_IS_S_240809_R7.dpt
7497.2,0.10032
7474.05,0.10336
7450.91,0.09454
7427.76,0.10306
7404.62,0.09955
7381.47,0.10589
7358.33,0.10832
7335.18,0.10151
7312.04,0.10601
7288.89,0.09495
7265.75,0.11140
7242.6,0.10502
7219.45,0.10314
7196.31,0.10750
7173.16,0.10525
7150.02,0.08946
7126.87,0.10347
7103.73,0.10064
7080.58,0.10407
7057.44,0.10430
7034.29,0.10873
7011.15,0.10153
6988,0.10425
6964.85,0.10583
6941.71,0.10976
6918.56,0.10135
6895.42,0.10410
6872.27,0.10367
6849.13,0.10088
6825.98,0.10384
6802.84,0.10985
6779.69,0.10430
6756.55,0.09949
6733.4,0.10012
6710.25,0.10234
6687.11,0.10619
6663.96,0.10162
6640.82,0.10273
6617.67,0.09745
6594.53,0.09889
6571.38,0.10552
6548.24,0.10498
6525.09,0.09987
6501.95,0.10272
6478.8,0.09777
6455.65,0.10304
6432.51,0.10312
6409.36,0.10460
6386.22,0.10258
6363.07,0.10406
6339.93,0.10348
6316.78,0.09942
6293.64,0.10361
6270.49,0.10071
6247.34,0.10232
6224.2,0.09927
6201.05,0.10218
6177.91,0.09973
6154.76,0.10356
6131.62,0.10051
6108.47,0.09808
6085.33,0.10265
6062.18,0.10138
6039.04,0.10029
6015.89,0.09976
5992.74,0.10395
5969.6,0.10073
5946.45,0.09674
5923.31,0.09695
5900.16,0.09648
5877.02,0.08953
5853.87,0.08959
5830.73,0.08679
5807.58,0.08674
5784.44,0.09297
5761.29,0.09282
5738.14,0.09343
5715,0.09274
5691.85,0.09413
5668.71,0.09503
5645.56,0.09593
5622.42,0.09669
5599.27,0.09661
5576.13,0.09918
5552.98,0.09860
5529.84,0.09934
5506.69,0.09734
5483.54,0.10011
5460.4,0.09943
5437.25,0.10215
5414.11,0.10054
5390.96,0.10002
5367.82,0.10185
5344.67,0.10209
5321.53,0.10241
5298.38,0.10118
5275.24,0.10052
5252.09,0.10190
5228.94,0.10131
5205.8,0.10170
5182.65,0.10239
5159.51,0.10223
5136.36,0.10151
5113.22,0.10174
5090.07,0.10267
5066.93,0.10276
5043.78,0.10293
5020.64,0.10177
4997.49,0.10281
4974.34,0.10128
4951.2,0.10329
4928.05,0.10229
4904.91,0.10289
4881.76,0.10428
4858.62,0.10322
4835.47,0.10161
4812.33,0.10350
4789.18,0.10261
4766.04,0.10259
4742.89,0.10324
4719.74,0.10165
4696.6,0.10080
4673.45,0.10014
4650.31,0.10124
4627.16,0.10026
4604.02,0.10184
4580.87,0.10143
4557.73,0.10261
4534.58,0.10162
4511.44,0.10151
4488.29,0.10036
4465.14,0.09869
4442,0.09342
4418.85,0.08625
4395.71,0.08118
4372.56,0.07675
4349.42,0.07074
4326.27,0.06829
4303.13,0.07353
4279.98,0.07366
4256.84,0.07361
4233.69,0.07324
4210.54,0.07286
4187.4,0.07504
4164.25,0.07446
4141.11,0.07739
4117.96,0.07900
4094.82,0.07708
4071.67,0.07765
4048.53,0.08186
4025.38,0.08252
4002.24,0.08401
3979.09,0.08668
3955.94,0.08734
3932.8,0.08815
3909.65,0.08808
3886.51,0.08902
3863.36,0.08841
3840.22,0.08863
3817.07,0.09027
3793.93,0.09087
3770.78,0.09264
3747.64,0.09181
3724.49,0.09349
3701.34,0.09196
3678.2,0.08537
3655.05,0.08668
3631.91,0.08589
3608.76,0.08340
3585.62,0.08111
3562.47,0.07739
3539.33,0.07576
3516.18,0.07505
3493.04,0.07226
3469.89,0.06943
3446.74,0.06780
3423.6,0.06429
3400.45,0.06777
3377.31,0.07148
3354.16,0.07270
3331.02,0.07184
3307.87,0.06457
3284.73,0.06981
3261.58,0.07548
3238.44,0.07560
3215.29,0.07550
3192.14,0.07507
3169,0.07578
3145.85,0.07402
3122.71,0.07189
3099.56,0.06825
3076.42,0.06459
3053.27,0.06291
3030.13,0.06156
3006.98,0.05871
2983.84,0.05629
2960.69,0.05837
2937.54,0.05948
2914.4,0.06304
2891.25,0.06283
2868.11,0.06249
2844.96,0.06350
2821.82,0.06248
2798.67,0.06457
2775.53,0.06788
2752.38,0.06855
2729.24,0.06764
2706.09,0.07143
2682.94,0.07199
2659.8,0.07325
2636.65,0.07442
2613.51,0.07347
2590.36,0.07333
2567.22,0.07335
2544.07,0.07446
2520.93,0.07595
2497.78,0.07883
2474.64,0.08050
2451.49,0.08075
2428.34,0.07857
2405.2,0.07615
2382.05,0.07472
2358.91,0.07608
2335.76,0.08065
2312.62,0.08277
2289.47,0.08015
2266.33,0.08008
2243.18,0.08040
2220.04,0.08072
2196.89,0.08302
2173.74,0.08477
2150.6,0.08413
2127.45,0.08385
2104.31,0.08271
2081.16,0.08219
2058.02,0.08213
2034.87,0.08323
2011.73,0.08434
1988.58,0.08162
1965.44,0.07829
1942.29,0.07286
1919.14,0.07983
1896,0.08022
1872.85,0.08031
1849.71,0.07571
1826.56,0.06622
1803.42,0.06598
1780.27,0.06077
1757.13,0.05483
1733.98,0.04946
1710.84,0.06984
1687.69,0.06162
1664.54,0.06107
1641.4,0.06080
1618.25,0.06310
1595.11,0.06398
1571.96,0.05836
1548.82,0.05985
1525.67,0.05937
1502.53,0.05677
1479.38,0.05450
1456.24,0.05653
1433.09,0.05586
1409.94,0.05626
1386.8,0.05443
1363.65,0.05457
1340.51,0.05278
1317.36,0.05258
1294.22,0.04758
1271.07,0.06628
1247.93,0.07317
1224.78,0.06846
1201.64,0.06312
1178.49,0.06079
1155.34,0.05833
1132.2,0.05432
1109.05,0.06423
1085.91,0.06693
1062.76,0.06442
1039.62,0.06228
1016.47,0.06604
993.326,0.06095
970.18,0.06192
947.035,0.06400
923.89,0.06327
900.744,0.06184
877.599,0.06163
854.453,0.06177
831.308,0.06180
808.162,0.06293
785.017,0.06075
761.871,0.05951
738.726,0.05086
715.58,0.06090
692.435,0.05909
669.29,0.05980
646.144,0.05777
622.999,0.05982
599.853,0.06805