File: 01_Data/PEVA/FTIR/IS/PEVA_0.26_IS_S_240809_R10.dpt
7497.2,0.10319
7474.05,0.10304
7450.91,0.10243
7427.76,0.10691
7404.62,0.10311
7381.47,0.10814
7358.33,0.11594
7335.18,0.09760
7312.04,0.10350
7288.89,0.10095
7265.75,0.09754
7242.6,0.10250
7219.45,0.10281
7196.31,0.10333
7173.16,0.10791
7150.02,0.09458
7126.87,0.10319
7103.73,0.10877
7080.58,0.09137
7057.44,0.10180
7034.29,0.10237
7011.15,0.09831
6988,0.10102
6964.85,0.10094
6941.71,0.10412
6918.56,0.10258
6895.42,0.10491
6872.27,0.10193
6849.13,0.09851
6825.98,0.10237
6802.84,0.10353
6779.69,0.10498
6756.55,0.09851
6733.4,0.10309
6710.25,0.10209
6687.11,0.10783
6663.96,0.10467
6640.82,0.09854
6617.67,0.10092
6594.53,0.10711
6571.38,0.10482
6548.24,0.10396
6525.09,0.09634
6501.95,0.09941
6478.8,0.10074
6455.65,0.09645
6432.51,0.10617
6409.36,0.09960
6386.22,0.10021
6363.07,0.10296
6339.93,0.10260
6316.78,0.10927
6293.64,0.09992
6270.49,0.09982
6247.34,0.10202
6224.2,0.09775
6201.05,0.10425
6177.91,0.09786
6154.76,0.10196
6131.62,0.10165
6108.47,0.10279
6085.33,0.10196
6062.18,0.10275
6039.04,0.09874
6015.89,0.09551
5992.74,0.10061
5969.6,0.09857
5946.45,0.09815
5923.31,0.09522
5900.16,0.09559
5877.02,0.09259
5853.87,0.09120
5830.73,0.08618
5807.58,0.08910
5784.44,0.09091
5761.29,0.09186
5738.14,0.09395
5715,0.09488
5691.85,0.09479
5668.71,0.09587
5645.56,0.09689
5622.42,0.09850
5599.27,0.09711
5576.13,0.09875
5552.98,0.09632
5529.84,0.10010
5506.69,0.10105
5483.54,0.09816
5460.4,0.10015
5437.25,0.09704
5414.11,0.09758
5390.96,0.10101
5367.82,0.09975
5344.67,0.10094
5321.53,0.10333
5298.38,0.10158
5275.24,0.09997
5252.09,0.10301
5228.94,0.10262
5205.8,0.10340
5182.65,0.10063
5159.51,0.10256
5136.36,0.10131
5113.22,0.10059
5090.07,0.10238
5066.93,0.10105
5043.78,0.10313
5020.64,0.10166
4997.49,0.10213
4974.34,0.10267
4951.2,0.10289
4928.05,0.10345
4904.91,0.10339
4881.76,0.10227
4858.62,0.10203
4835.47,0.10294
4812.33,0.10141
4789.18,0.10193
4766.04,0.10321
4742.89,0.10172
4719.74,0.10121
4696.6,0.10069
4673.45,0.09934
4650.31,0.10098
4627.16,0.09977
4604.02,0.10070
4580.87,0.10096
4557.73,0.10081
4534.58,0.10172
4511.44,0.10094
4488.29,0.09941
4465.14,0.09831
4442,0.09306
4418.85,0.08534
4395.71,0.08039
4372.56,0.07573
4349.42,0.07058
4326.27,0.06855
4303.13,0.07239
4279.98,0.07180
4256.84,0.07324
4233.69,0.07341
4210.54,0.07282
4187.4,0.07524
4164.25,0.07426
4141.11,0.07808
4117.96,0.07928
4094.82,0.07784
4071.67,0.07679
4048.53,0.08095
4025.38,0.08179
4002.24,0.08335
3979.09,0.08644
3955.94,0.08710
3932.8,0.08717
3909.65,0.08776
3886.51,0.08807
3863.36,0.08818
3840.22,0.08897
3817.07,0.09008
3793.93,0.09046
3770.78,0.09170
3747.64,0.09176
3724.49,0.09279
3701.34,0.09090
3678.2,0.08467
3655.05,0.08552
3631.91,0.08579
3608.76,0.08256
3585.62,0.08119
3562.47,0.07725
3539.33,0.07545
3516.18,0.07459
3493.04,0.07172
3469.89,0.06929
3446.74,0.06723
3423.6,0.06468
3400.45,0.06771
3377.31,0.07075
3354.16,0.07257
3331.02,0.07123
3307.87,0.06522
3284.73,0.06911
3261.58,0.07491
3238.44,0.07528
3215.29,0.07451
3192.14,0.07373
3169,0.07425
3145.85,0.07442
3122.71,0.07200
3099.56,0.06818
3076.42,0.06500
3053.27,0.06239
3030.13,0.06109
3006.98,0.05766
2983.84,0.05610
2960.69,0.05790
2937.54,0.05881
2914.4,0.06225
2891.25,0.06192
2868.11,0.06180
2844.96,0.06278
2821.82,0.06206
2798.67,0.06394
2775.53,0.06750
2752.38,0.06807
2729.24,0.06748
2706.09,0.07112
2682.94,0.07171
2659.8,0.07297
2636.65,0.07374
2613.51,0.07308
2590.36,0.07271
2567.22,0.07319
2544.07,0.07414
2520.93,0.07538
2497.78,0.07881
2474.64,0.07974
2451.49,0.07982
2428.34,0.07815
2405.2,0.07532
2382.05,0.07393
2358.91,0.07650
2335.76,0.08042
2312.62,0.08229
2289.47,0.08016
2266.33,0.07947
2243.18,0.07993
2220.04,0.08010
2196.89,0.08267
2173.74,0.08436
2150.6,0.08365
2127.45,0.08278
2104.31,0.08226
2081.16,0.08147
2058.02,0.08188
2034.87,0.08240
2011.73,0.08358
1988.58,0.08107
1965.44,0.07751
1942.29,0.07277
1919.14,0.07929
1896,0.07977
1872.85,0.07961
1849.71,0.07575
1826.56,0.06640
1803.42,0.06566
1780.27,0.06036
1757.13,0.05463
1733.98,0.04963
1710.84,0.06883
1687.69,0.06062
1664.54,0.06055
1641.4,0.06000
1618.25,0.06203
1595.11,0.06341
1571.96,0.05813
1548.82,0.05964
1525.67,0.05885
1502.53,0.05591
1479.38,0.05437
1456.24,0.05520
1433.09,0.05540
1409.94,0.05609
1386.8,0.05395
1363.65,0.05433
1340.51,0.05203
1317.36,0.05218
1294.22,0.04742
1271.07,0.06469
1247.93,0.07217
1224.78,0.06789
1201.64,0.06258
1178.49,0.06021
1155.34,0.05836
1132.2,0.05320
1109.05,0.06326
1085.91,0.06654
1062.76,0.06400
1039.62,0.06200
1016.47,0.06463
993.326,0.06135
970.18,0.06060
947.035,0.06357
923.89,0.06250
900.744,0.06131
877.599,0.06047
854.453,0.06141
831.308,0.06122
808.162,0.06200
785.017,0.06008
761.871,0.05917
738.726,0.05126
715.58,0.06057
692.435,0.05836
669.29,0.05863
646.144,0.05661
622.999,0.06013
599.853,0.06421