File: 01_Data/PEVA/FTIR/IS/PEVA_0.18_IS_Trans_S_240819_R1.dpt
7496.91,0.93519
7473.76,0.93672
7450.62,0.93126
7427.47,0.92423
7404.33,0.93141
7381.18,0.91894
7358.04,0.92868
7334.89,0.93658
7311.75,0.92752
7288.61,0.91371
7265.46,0.92139
7242.32,0.91705
7219.17,0.91940
7196.03,0.91765
7172.88,0.91188
7149.74,0.91591
7126.59,0.93124
7103.45,0.91526
7080.3,0.91965
7057.16,0.91786
7034.02,0.92267
7010.87,0.93444
6987.73,0.92243
6964.58,0.92588
6941.44,0.92988
6918.29,0.93529
6895.15,0.92431
6872,0.92886
6848.86,0.93509
6825.71,0.92546
6802.57,0.93486
6779.43,0.93773
6756.28,0.93391
6733.14,0.93942
6709.99,0.93611
6686.85,0.94581
6663.7,0.93973
6640.56,0.93751
6617.41,0.94145
6594.27,0.93827
6571.12,0.93844
6547.98,0.93880
6524.84,0.93588
6501.69,0.94741
6478.55,0.93591
6455.4,0.93969
6432.26,0.94336
6409.11,0.93460
6385.97,0.94183
6362.82,0.94414
6339.68,0.94301
6316.53,0.94025
6293.39,0.94495
6270.24,0.94093
6247.1,0.93946
6223.96,0.93924
6200.81,0.94083
6177.67,0.93676
6154.52,0.93590
6131.38,0.93626
6108.23,0.93291
6085.09,0.93283
6061.94,0.92958
6038.8,0.92801
6015.65,0.92219
5992.51,0.92599
5969.37,0.92235
5946.22,0.91356
5923.08,0.91338
5899.93,0.90449
5876.79,0.89093
5853.64,0.85790
5830.5,0.82756
5807.35,0.78826
5784.21,0.73393
5761.06,0.78148
5737.92,0.84522
5714.78,0.86000
5691.63,0.84129
5668.49,0.81495
5645.34,0.85273
5622.2,0.86712
5599.05,0.87631
5575.91,0.87772
5552.76,0.87498
5529.62,0.87509
5506.47,0.87306
5483.33,0.87971
5460.19,0.87319
5437.04,0.87750
5413.9,0.87232
5390.75,0.89170
5367.61,0.89918
5344.46,0.88036
5321.32,0.90374
5298.17,0.90355
5275.03,0.90445
5251.88,0.89652
5228.74,0.89920
5205.6,0.88852
5182.45,0.90071
5159.31,0.90165
5136.16,0.90669
5113.02,0.90625
5089.87,0.90816
5066.73,0.90889
5043.58,0.91003
5020.44,0.90980
4997.29,0.90734
4974.15,0.90395
4951.01,0.90977
4927.86,0.90933
4904.72,0.91012
4881.57,0.90891
4858.43,0.91124
4835.28,0.91317
4812.14,0.91297
4788.99,0.91439
4765.85,0.91252
4742.7,0.91401
4719.56,0.91244
4696.42,0.91049
4673.27,0.90369
4650.13,0.91231
4626.98,0.91580
4603.84,0.91504
4580.69,0.91449
4557.55,0.91217
4534.4,0.90811
4511.26,0.90100
4488.11,0.88969
4464.97,0.87310
4441.83,0.83974
4418.68,0.80939
4395.54,0.75734
4372.39,0.67310
4349.25,0.51440
4326.1,0.28127
4302.96,0.59853
4279.81,0.57825
4256.67,0.38664
4233.52,0.53493
4210.38,0.50579
4187.24,0.45309
4164.09,0.46858
4140.95,0.48495
4117.8,0.50198
4094.66,0.51191
4071.51,0.58682
4048.37,0.61726
4025.22,0.63608
4002.08,0.69246
3978.93,0.68647
3955.79,0.70378
3932.65,0.69047
3909.5,0.69795
3886.36,0.68947
3863.21,0.69428
3840.07,0.69011
3816.92,0.70250
3793.78,0.75084
3770.63,0.75413
3747.49,0.72417
3724.34,0.73851
3701.2,0.74687
3678.06,0.72140
3654.91,0.71263
3631.77,0.70930
3608.62,0.66202
3585.48,0.77312
3562.33,0.80723
3539.19,0.83294
3516.04,0.83583
3492.9,0.82364
3469.75,0.73100
3446.61,0.69812
3423.47,0.79966
3400.32,0.81225
3377.18,0.80162
3354.03,0.81190
3330.89,0.82318
3307.74,0.82489
3284.6,0.82533
3261.45,0.81920
3238.31,0.81259
3215.16,0.79387
3192.02,0.77274
3168.87,0.74936
3145.73,0.72532
3122.59,0.68291
3099.44,0.58847
3076.3,0.46303
3053.15,0.36684
3030.01,0.23207
3006.86,0.14195
2983.72,0.03373
2960.57,0.00084
2937.43,0.00046
2914.28,0.00063
2891.14,0.00067
2868,0.00025
2844.85,0.00051
2821.71,0.00859
2798.56,0.08058
2775.42,0.21198
2752.27,0.27473
2729.13,0.29554
2705.98,0.34652
2682.84,0.31783
2659.69,0.32342
2636.55,0.34662
2613.41,0.43513
2590.26,0.52013
2567.12,0.60856
2543.97,0.65709
2520.83,0.68065
2497.68,0.70613
2474.54,0.69261
2451.39,0.75072
2428.25,0.75977
2405.1,0.74828
2381.96,0.71752
2358.82,0.51513
2335.67,0.52039
2312.53,0.61334
2289.38,0.71565
2266.24,0.74565
2243.09,0.76800
2219.95,0.79790
2196.8,0.78238
2173.66,0.75277
2150.51,0.74340
2127.37,0.79001
2104.23,0.80299
2081.08,0.79815
2057.94,0.77674
2034.79,0.73257
2011.65,0.73393
1988.5,0.79725
1965.36,0.79505
1942.21,0.77943
1919.07,0.76164
1895.92,0.71073
1872.78,0.70546
1849.64,0.70095
1826.49,0.63744
1803.35,0.55090
1780.2,0.38596
1757.06,0.04990
1733.91,0.00068
1710.77,0.15841
1687.62,0.34598
1664.48,0.53073
1641.33,0.55864
1618.19,0.64701
1595.05,0.65948
1571.9,0.62019
1548.76,0.58054
1525.61,0.51102
1502.47,0.43269
1479.32,0.11085
1456.18,0.00099
1433.03,0.02323
1409.89,0.26823
1386.74,0.07719
1363.6,0.00234
1340.46,0.22032
1317.31,0.24495
1294.17,0.12731
1271.02,0.01639
1247.88,0.00026
1224.73,0.00040
1201.59,0.09020
1178.44,0.20758
1155.3,0.17900
1132.15,0.12212
1109.01,0.15745
1085.87,0.12633
1062.72,0.07626
1039.58,0.02430
1016.43,0.00186
993.287,0.20852
970.142,0.18347
946.998,0.17334
923.853,0.38727
900.709,0.48671
877.564,0.50568
854.42,0.53583
831.275,0.60693
808.131,0.59005
784.986,0.62671
761.842,0.56781
738.697,0.30973
715.552,0.04948
692.408,0.69648
669.263,0.67324
646.119,0.56725
622.974,0.54695
599.83,0.52181