File: 01_Data/PEVA/FTIR/IS/PEVA_0.18_IS_Trans_S_240819_R3.dpt
7496.91,0.93206
7473.76,0.92080
7450.62,0.94066
7427.47,0.93886
7404.33,0.94098
7381.18,0.92603
7358.04,0.93068
7334.89,0.94077
7311.75,0.92587
7288.61,0.93315
7265.46,0.92811
7242.32,0.89985
7219.17,0.89880
7196.03,0.91062
7172.88,0.91890
7149.74,0.92092
7126.59,0.92887
7103.45,0.91541
7080.3,0.90510
7057.16,0.90754
7034.02,0.91817
7010.87,0.91797
6987.73,0.91782
6964.58,0.91821
6941.44,0.91957
6918.29,0.92099
6895.15,0.92435
6872,0.92449
6848.86,0.92190
6825.71,0.92676
6802.57,0.91561
6779.43,0.93778
6756.28,0.93431
6733.14,0.93198
6709.99,0.93639
6686.85,0.93125
6663.7,0.93478
6640.56,0.93965
6617.41,0.93146
6594.27,0.93721
6571.12,0.93281
6547.98,0.93305
6524.84,0.93153
6501.69,0.93298
6478.55,0.93183
6455.4,0.92897
6432.26,0.93286
6409.11,0.93672
6385.97,0.93641
6362.82,0.93686
6339.68,0.93488
6316.53,0.93172
6293.39,0.93753
6270.24,0.93629
6247.1,0.93611
6223.96,0.93468
6200.81,0.93253
6177.67,0.92679
6154.52,0.93092
6131.38,0.93268
6108.23,0.93080
6085.09,0.92222
6061.94,0.92914
6038.8,0.92406
6015.65,0.92090
5992.51,0.91281
5969.37,0.91710
5946.22,0.91221
5923.08,0.90990
5899.93,0.89814
5876.79,0.88624
5853.64,0.85121
5830.5,0.82252
5807.35,0.78432
5784.21,0.73014
5761.06,0.77780
5737.92,0.84356
5714.78,0.85806
5691.63,0.83449
5668.49,0.80810
5645.34,0.84819
5622.2,0.86488
5599.05,0.87298
5575.91,0.87111
5552.76,0.86697
5529.62,0.87148
5506.47,0.86572
5483.33,0.87177
5460.19,0.86871
5437.04,0.86828
5413.9,0.86345
5390.75,0.88490
5367.61,0.89083
5344.46,0.87213
5321.32,0.89934
5298.17,0.89627
5275.03,0.89906
5251.88,0.88940
5228.74,0.88889
5205.6,0.88073
5182.45,0.89236
5159.31,0.89523
5136.16,0.89906
5113.02,0.90070
5089.87,0.89975
5066.73,0.90384
5043.58,0.90426
5020.44,0.90500
4997.29,0.90148
4974.15,0.90043
4951.01,0.90313
4927.86,0.90658
4904.72,0.90584
4881.57,0.90540
4858.43,0.90528
4835.28,0.90684
4812.14,0.90782
4788.99,0.90991
4765.85,0.90853
4742.7,0.90848
4719.56,0.90814
4696.42,0.90491
4673.27,0.89881
4650.13,0.90579
4626.98,0.90991
4603.84,0.90919
4580.69,0.90893
4557.55,0.90612
4534.4,0.90218
4511.26,0.89449
4488.11,0.88354
4464.97,0.86731
4441.83,0.83573
4418.68,0.80358
4395.54,0.75088
4372.39,0.66809
4349.25,0.50866
4326.1,0.27757
4302.96,0.59282
4279.81,0.57274
4256.67,0.38352
4233.52,0.53042
4210.38,0.50049
4187.24,0.44856
4164.09,0.46289
4140.95,0.48098
4117.8,0.49721
4094.66,0.50617
4071.51,0.58185
4048.37,0.61160
4025.22,0.63032
4002.08,0.68688
3978.93,0.67968
3955.79,0.69787
3932.65,0.68382
3909.5,0.69259
3886.36,0.68042
3863.21,0.68282
3840.07,0.67470
3816.92,0.68921
3793.78,0.74325
3770.63,0.74461
3747.49,0.70856
3724.34,0.73183
3701.2,0.74096
3678.06,0.70788
3654.91,0.70076
3631.77,0.69974
3608.62,0.65114
3585.48,0.76065
3562.33,0.79273
3539.19,0.82022
3516.04,0.82489
3492.9,0.81639
3469.75,0.72481
3446.61,0.68900
3423.47,0.79169
3400.32,0.80549
3377.18,0.79679
3354.03,0.80522
3330.89,0.81482
3307.74,0.81899
3284.6,0.81718
3261.45,0.81445
3238.31,0.80498
3215.16,0.78587
3192.02,0.76482
3168.87,0.74234
3145.73,0.72048
3122.59,0.67706
3099.44,0.58361
3076.3,0.45822
3053.15,0.36179
3030.01,0.22915
3006.86,0.14001
2983.72,0.03279
2960.57,0.00050
2937.43,0.00035
2914.28,0.00066
2891.14,0.00036
2868,0.00022
2844.85,0.00018
2821.71,0.00828
2798.56,0.07914
2775.42,0.20866
2752.27,0.27113
2729.13,0.29138
2705.98,0.34285
2682.84,0.31321
2659.69,0.31868
2636.55,0.34247
2613.41,0.43061
2590.26,0.51471
2567.12,0.60253
2543.97,0.64992
2520.83,0.67356
2497.68,0.69895
2474.54,0.68511
2451.39,0.74349
2428.25,0.75260
2405.1,0.74018
2381.96,0.72176
2358.82,0.57023
2335.67,0.56145
2312.53,0.63281
2289.38,0.71347
2266.24,0.73997
2243.09,0.75891
2219.95,0.78850
2196.8,0.77396
2173.66,0.74600
2150.51,0.73667
2127.37,0.78176
2104.23,0.79333
2081.08,0.78861
2057.94,0.76891
2034.79,0.72603
2011.65,0.72695
1988.5,0.78736
1965.36,0.78314
1942.21,0.76692
1919.07,0.75170
1895.92,0.70316
1872.78,0.69757
1849.64,0.69071
1826.49,0.62592
1803.35,0.54278
1780.2,0.37853
1757.06,0.04839
1733.91,0.00098
1710.77,0.15235
1687.62,0.33750
1664.48,0.52087
1641.33,0.54825
1618.19,0.63344
1595.05,0.64896
1571.9,0.60818
1548.76,0.56863
1525.61,0.49710
1502.47,0.42432
1479.32,0.10828
1456.18,0.00082
1433.03,0.02248
1409.89,0.26395
1386.74,0.07553
1363.6,0.00227
1340.46,0.21597
1317.31,0.24007
1294.17,0.12475
1271.02,0.01551
1247.88,0.00056
1224.73,0.00037
1201.59,0.08858
1178.44,0.20499
1155.3,0.17675
1132.15,0.11951
1109.01,0.15493
1085.87,0.12339
1062.72,0.07368
1039.58,0.02425
1016.43,0.00149
993.287,0.20461
970.142,0.18021
946.998,0.16969
923.853,0.38099
900.709,0.48053
877.564,0.49913
854.42,0.52809
831.275,0.59822
808.131,0.58030
784.986,0.61596
761.842,0.55906
738.697,0.30501
715.552,0.04951
692.408,0.69241
669.263,0.69010
646.119,0.56687
622.974,0.53932
599.83,0.51113