File: 01_Data/PEVA/FTIR/IS/PEVA_0.26_IS_Trans_S_240819_R10.dpt
7496.91,0.93964
7473.76,0.92970
7450.62,0.93957
7427.47,0.93546
7404.33,0.93778
7381.18,0.92965
7358.04,0.91673
7334.89,0.92614
7311.75,0.92101
7288.61,0.91655
7265.46,0.92611
7242.32,0.90232
7219.17,0.91396
7196.03,0.90359
7172.88,0.92090
7149.74,0.90543
7126.59,0.92191
7103.45,0.91701
7080.3,0.91375
7057.16,0.91244
7034.02,0.92187
7010.87,0.91093
6987.73,0.91820
6964.58,0.92345
6941.44,0.91722
6918.29,0.92375
6895.15,0.92194
6872,0.92243
6848.86,0.92397
6825.71,0.91953
6802.57,0.93205
6779.43,0.92887
6756.28,0.93102
6733.14,0.92860
6709.99,0.93196
6686.85,0.93539
6663.7,0.93162
6640.56,0.93520
6617.41,0.93805
6594.27,0.93247
6571.12,0.93115
6547.98,0.93460
6524.84,0.93465
6501.69,0.93624
6478.55,0.94138
6455.4,0.93775
6432.26,0.93812
6409.11,0.93505
6385.97,0.93370
6362.82,0.93349
6339.68,0.93666
6316.53,0.93506
6293.39,0.93654
6270.24,0.93314
6247.1,0.93358
6223.96,0.93726
6200.81,0.93332
6177.67,0.93414
6154.52,0.92828
6131.38,0.92615
6108.23,0.92279
6085.09,0.91824
6061.94,0.90605
6038.8,0.89493
6015.65,0.88319
5992.51,0.89928
5969.37,0.90356
5946.22,0.89719
5923.08,0.87397
5899.93,0.84781
5876.79,0.81309
5853.64,0.77504
5830.5,0.72743
5807.35,0.76474
5784.21,0.80443
5761.06,0.82412
5737.92,0.81831
5714.78,0.82121
5691.63,0.82138
5668.49,0.83946
5645.34,0.85047
5622.2,0.86113
5599.05,0.86744
5575.91,0.87237
5552.76,0.87401
5529.62,0.88023
5506.47,0.87560
5483.33,0.88035
5460.19,0.87157
5437.04,0.88170
5413.9,0.87272
5390.75,0.88948
5367.61,0.89490
5344.46,0.88052
5321.32,0.89916
5298.17,0.89935
5275.03,0.90260
5251.88,0.89327
5228.74,0.89674
5205.6,0.88856
5182.45,0.90021
5159.31,0.90195
5136.16,0.90428
5113.02,0.90323
5089.87,0.90464
5066.73,0.90636
5043.58,0.90902
5020.44,0.91087
4997.29,0.90940
4974.15,0.91132
4951.01,0.91239
4927.86,0.91054
4904.72,0.91138
4881.57,0.91058
4858.43,0.91125
4835.28,0.91133
4812.14,0.90743
4788.99,0.90674
4765.85,0.90904
4742.7,0.90496
4719.56,0.89558
4696.42,0.87902
4673.27,0.87699
4650.13,0.88453
4626.98,0.87268
4603.84,0.89184
4580.69,0.88667
4557.55,0.89538
4534.4,0.89292
4511.26,0.88546
4488.11,0.86426
4464.97,0.84790
4441.83,0.79901
4418.68,0.70029
4395.54,0.62110
4372.39,0.54223
4349.25,0.41419
4326.1,0.37540
4302.96,0.47972
4279.81,0.47398
4256.67,0.49103
4233.52,0.48347
4210.38,0.46826
4187.24,0.50898
4164.09,0.50210
4140.95,0.56376
4117.8,0.58766
4094.66,0.54913
4071.51,0.54272
4048.37,0.62027
4025.22,0.63257
4002.08,0.65535
3978.93,0.69108
3955.79,0.70467
3932.65,0.69843
3909.5,0.70956
3886.36,0.70571
3863.21,0.69817
3840.07,0.68941
3816.92,0.71017
3793.78,0.75033
3770.63,0.75027
3747.49,0.71506
3724.34,0.74627
3701.2,0.74136
3678.06,0.65037
3654.91,0.68188
3631.77,0.67303
3608.62,0.63888
3585.48,0.61389
3562.33,0.57385
3539.19,0.55237
3516.04,0.53692
3492.9,0.49008
3469.75,0.42961
3446.61,0.36663
3423.47,0.29103
3400.32,0.38441
3377.18,0.46780
3354.03,0.50144
3330.89,0.48785
3307.74,0.34843
3284.6,0.45238
3261.45,0.55446
3238.31,0.56655
3215.16,0.55151
3192.02,0.53958
3168.87,0.54347
3145.73,0.53374
3122.59,0.49111
3099.44,0.41616
3076.3,0.33445
3053.15,0.27034
3030.01,0.24030
3006.86,0.08332
2983.72,0.00052
2960.57,0.00085
2937.43,0.00072
2914.28,0.00014
2891.14,0.00016
2868,0.00045
2844.85,0.00053
2821.71,0.06140
2798.56,0.21616
2775.42,0.34531
2752.27,0.36321
2729.13,0.33904
2705.98,0.44340
2682.84,0.46203
2659.69,0.48301
2636.55,0.50168
2613.41,0.48740
2590.26,0.48779
2567.12,0.49603
2543.97,0.51771
2520.83,0.54440
2497.68,0.59193
2474.54,0.61188
2451.39,0.61883
2428.25,0.58919
2405.1,0.54629
2381.96,0.49878
2358.82,0.43297
2335.67,0.52218
2312.53,0.60184
2289.38,0.61831
2266.24,0.61710
2243.09,0.62494
2219.95,0.63437
2196.8,0.67163
2173.66,0.69753
2150.51,0.68910
2127.37,0.68160
2104.23,0.67424
2081.08,0.66090
2057.94,0.66413
2034.79,0.68127
2011.65,0.69878
1988.5,0.66405
1965.36,0.60934
1942.21,0.51762
1919.07,0.63025
1895.92,0.64871
1872.78,0.65546
1849.64,0.59510
1826.49,0.41377
1803.35,0.42574
1780.2,0.29828
1757.06,0.08518
1733.91,0.00080
1710.77,0.00032
1687.62,0.04818
1664.48,0.18161
1641.33,0.19543
1618.19,0.29579
1595.05,0.34743
1571.9,0.16220
1548.76,0.26295
1525.61,0.24323
1502.47,0.07594
1479.32,0.03831
1456.18,0.00049
1433.03,0.00026
1409.89,0.00007
1386.74,0.00054
1363.6,0.00145
1340.46,0.00059
1317.31,0.00013
1294.17,0.00044
1271.02,0.00049
1247.88,0.00051
1224.73,0.00024
1201.59,0.00148
1178.44,0.01216
1155.3,0.00607
1132.15,0.00044
1109.01,0.00056
1085.87,0.00031
1062.72,0.01409
1039.58,0.02318
1016.43,0.00056
993.287,0.00240
970.142,0.00018
946.998,0.00052
923.853,0.00334
900.709,0.02615
877.564,0.00451
854.42,0.03908
831.275,0.02888
808.131,0.16205
784.986,0.10187
761.842,0.10277
738.697,0.00469
715.552,0.02176
692.408,0.00022
669.263,0.01224
646.119,0.00039
622.974,0.00347
599.83,0.00433