File: 01_Data/PEVA/FTIR/IS/PEVA_0.26_IS_Trans_S_240819_R9.dpt
7496.91,0.94615
7473.76,0.91964
7450.62,0.93448
7427.47,0.92395
7404.33,0.93727
7381.18,0.92241
7358.04,0.92060
7334.89,0.92597
7311.75,0.92433
7288.61,0.92802
7265.46,0.91980
7242.32,0.90611
7219.17,0.91240
7196.03,0.90275
7172.88,0.90959
7149.74,0.91127
7126.59,0.92298
7103.45,0.90858
7080.3,0.90627
7057.16,0.91399
7034.02,0.92497
7010.87,0.91370
6987.73,0.91756
6964.58,0.92499
6941.44,0.92093
6918.29,0.92404
6895.15,0.92736
6872,0.92375
6848.86,0.92411
6825.71,0.92105
6802.57,0.92167
6779.43,0.93232
6756.28,0.92592
6733.14,0.92907
6709.99,0.92633
6686.85,0.92951
6663.7,0.92892
6640.56,0.93511
6617.41,0.93447
6594.27,0.92966
6571.12,0.93943
6547.98,0.94064
6524.84,0.93201
6501.69,0.93391
6478.55,0.92810
6455.4,0.93518
6432.26,0.94166
6409.11,0.93258
6385.97,0.93185
6362.82,0.94333
6339.68,0.93231
6316.53,0.93796
6293.39,0.93666
6270.24,0.93507
6247.1,0.93594
6223.96,0.93113
6200.81,0.93408
6177.67,0.92969
6154.52,0.93114
6131.38,0.92907
6108.23,0.92718
6085.09,0.92195
6061.94,0.90733
6038.8,0.89721
6015.65,0.88311
5992.51,0.89780
5969.37,0.90490
5946.22,0.89730
5923.08,0.87443
5899.93,0.85017
5876.79,0.81517
5853.64,0.76970
5830.5,0.72519
5807.35,0.75933
5784.21,0.80493
5761.06,0.82327
5737.92,0.81528
5714.78,0.82016
5691.63,0.82378
5668.49,0.83933
5645.34,0.85028
5622.2,0.85956
5599.05,0.86823
5575.91,0.87412
5552.76,0.87734
5529.62,0.87872
5506.47,0.87559
5483.33,0.87620
5460.19,0.87024
5437.04,0.87801
5413.9,0.87178
5390.75,0.88924
5367.61,0.89631
5344.46,0.88034
5321.32,0.90183
5298.17,0.90122
5275.03,0.90089
5251.88,0.89376
5228.74,0.89646
5205.6,0.89141
5182.45,0.90253
5159.31,0.90204
5136.16,0.90235
5113.02,0.90261
5089.87,0.90607
5066.73,0.90756
5043.58,0.90847
5020.44,0.90943
4997.29,0.90961
4974.15,0.91094
4951.01,0.91187
4927.86,0.91041
4904.72,0.91185
4881.57,0.91096
4858.43,0.91080
4835.28,0.91078
4812.14,0.90956
4788.99,0.90736
4765.85,0.90735
4742.7,0.90729
4719.56,0.89453
4696.42,0.87997
4673.27,0.87646
4650.13,0.88286
4626.98,0.87222
4603.84,0.89268
4580.69,0.88787
4557.55,0.89483
4534.4,0.89223
4511.26,0.88655
4488.11,0.86424
4464.97,0.84958
4441.83,0.79897
4418.68,0.70068
4395.54,0.62092
4372.39,0.54241
4349.25,0.41334
4326.1,0.37517
4302.96,0.47964
4279.81,0.47279
4256.67,0.49079
4233.52,0.48294
4210.38,0.46884
4187.24,0.50840
4164.09,0.50086
4140.95,0.56294
4117.8,0.58797
4094.66,0.54965
4071.51,0.54267
4048.37,0.62057
4025.22,0.63263
4002.08,0.65681
3978.93,0.69109
3955.79,0.70549
3932.65,0.69859
3909.5,0.70979
3886.36,0.70515
3863.21,0.69738
3840.07,0.68980
3816.92,0.71104
3793.78,0.74972
3770.63,0.74908
3747.49,0.71454
3724.34,0.73572
3701.2,0.73308
3678.06,0.64922
3654.91,0.68319
3631.77,0.66699
3608.62,0.63651
3585.48,0.61160
3562.33,0.57401
3539.19,0.55299
3516.04,0.53719
3492.9,0.49061
3469.75,0.43007
3446.61,0.36772
3423.47,0.29058
3400.32,0.38359
3377.18,0.46762
3354.03,0.50226
3330.89,0.48743
3307.74,0.34845
3284.6,0.45221
3261.45,0.55526
3238.31,0.56744
3215.16,0.55171
3192.02,0.53915
3168.87,0.54385
3145.73,0.53275
3122.59,0.49073
3099.44,0.41608
3076.3,0.33418
3053.15,0.27074
3030.01,0.24053
3006.86,0.08342
2983.72,0.00056
2960.57,0.00042
2937.43,0.00042
2914.28,0.00056
2891.14,0.00072
2868,0.00026
2844.85,0.00103
2821.71,0.06087
2798.56,0.21620
2775.42,0.34493
2752.27,0.36268
2729.13,0.33854
2705.98,0.44370
2682.84,0.46183
2659.69,0.48330
2636.55,0.50176
2613.41,0.48722
2590.26,0.48769
2567.12,0.49658
2543.97,0.51771
2520.83,0.54511
2497.68,0.59213
2474.54,0.61128
2451.39,0.61849
2428.25,0.58914
2405.1,0.54676
2381.96,0.48110
2358.82,0.34179
2335.67,0.43601
2312.53,0.55126
2289.38,0.60952
2266.24,0.61286
2243.09,0.62448
2219.95,0.63370
2196.8,0.67099
2173.66,0.69806
2150.51,0.69027
2127.37,0.68300
2104.23,0.67454
2081.08,0.66007
2057.94,0.66313
2034.79,0.68208
2011.65,0.70036
1988.5,0.66541
1965.36,0.60908
1942.21,0.51732
1919.07,0.62956
1895.92,0.64856
1872.78,0.65526
1849.64,0.59594
1826.49,0.41433
1803.35,0.42584
1780.2,0.29810
1757.06,0.08555
1733.91,0.00020
1710.77,0.00041
1687.62,0.04822
1664.48,0.18133
1641.33,0.19565
1618.19,0.29646
1595.05,0.34796
1571.9,0.16218
1548.76,0.26297
1525.61,0.24359
1502.47,0.07584
1479.32,0.03832
1456.18,0.00068
1433.03,0.00018
1409.89,0.00006
1386.74,-0.00003
1363.6,0.00152
1340.46,0.00042
1317.31,0.00050
1294.17,0.00020
1271.02,0.00013
1247.88,0.00045
1224.73,0.00068
1201.59,0.00184
1178.44,0.01187
1155.3,0.00576
1132.15,0.00033
1109.01,0.00055
1085.87,0.00041
1062.72,0.01350
1039.58,0.02297
1016.43,0.00107
993.287,0.00197
970.142,0.00034
946.998,0.00004
923.853,0.00279
900.709,0.02579
877.564,0.00466
854.42,0.03964
831.275,0.02853
808.131,0.16147
784.986,0.10242
761.842,0.10251
738.697,0.00513
715.552,0.02191
692.408,0.00115
669.263,0.01088
646.119,0.00176
622.974,0.00231
599.83,0.00403