File: 01_Data/PEVA/FTIR/IS/PEVA_0.18_IS_Trans_T_240819_R6.dpt
7496.91,0.02115
7473.76,0.02427
7450.62,0.01773
7427.47,0.01788
7404.33,0.02917
7381.18,0.01712
7358.04,0.03064
7334.89,0.01680
7311.75,0.04905
7288.61,0.01696
7265.46,0.01066
7242.32,0.01175
7219.17,0.00964
7196.03,0.01496
7172.88,0.01136
7149.74,0.00825
7126.59,0.01472
7103.45,0.01159
7080.3,0.02512
7057.16,0.02740
7034.02,0.00673
7010.87,0.02674
6987.73,0.00910
6964.58,0.01570
6941.44,0.01956
6918.29,0.01877
6895.15,0.00996
6872,0.01092
6848.86,0.02729
6825.71,0.02077
6802.57,0.01713
6779.43,0.01259
6756.28,0.01307
6733.14,0.00889
6709.99,0.01185
6686.85,0.01132
6663.7,0.00274
6640.56,0.01042
6617.41,0.01703
6594.27,0.00380
6571.12,0.01242
6547.98,0.00778
6524.84,0.00155
6501.69,0.00989
6478.55,0.00625
6455.4,0.00721
6432.26,0.00596
6409.11,0.00018
6385.97,0.00654
6362.82,0.01101
6339.68,0.01002
6316.53,0.00796
6293.39,0.00853
6270.24,0.00608
6247.1,0.00672
6223.96,0.00444
6200.81,0.00382
6177.67,0.00677
6154.52,0.00743
6131.38,0.01277
6108.23,0.00309
6085.09,0.00512
6061.94,0.00595
6038.8,0.00420
6015.65,0.00039
5992.51,-0.00109
5969.37,0.00679
5946.22,0.00392
5923.08,0.00705
5899.93,0.00713
5876.79,0.00313
5853.64,0.00098
5830.5,0.00548
5807.35,0.00518
5784.21,0.00262
5761.06,0.00421
5737.92,0.00421
5714.78,0.00612
5691.63,0.00425
5668.49,0.00506
5645.34,0.00352
5622.2,0.00460
5599.05,-0.00007
5575.91,0.00272
5552.76,0.00020
5529.62,0.00401
5506.47,0.00030
5483.33,0.00281
5460.19,0.00619
5437.04,0.00396
5413.9,0.00299
5390.75,0.00443
5367.61,0.00489
5344.46,0.00268
5321.32,0.00293
5298.17,0.00200
5275.03,0.00222
5251.88,0.00165
5228.74,0.00096
5205.6,0.00247
5182.45,0.00574
5159.31,0.00256
5136.16,0.00066
5113.02,0.00188
5089.87,0.00202
5066.73,0.00338
5043.58,0.00195
5020.44,0.00095
4997.29,0.00241
4974.15,0.00208
4951.01,0.00337
4927.86,0.00252
4904.72,0.00304
4881.57,0.00208
4858.43,0.00173
4835.28,0.00171
4812.14,0.00158
4788.99,0.00023
4765.85,0.00028
4742.7,0.00250
4719.56,0.00243
4696.42,-0.00002
4673.27,0.00188
4650.13,0.00123
4626.98,0.00134
4603.84,0.00097
4580.69,0.00117
4557.55,0.00266
4534.4,0.00215
4511.26,0.00060
4488.11,0.00152
4464.97,-0.00068
4441.83,0.00217
4418.68,0.00143
4395.54,0.00195
4372.39,0.00076
4349.25,0.00042
4326.1,0.00298
4302.96,0.00011
4279.81,0.00158
4256.67,0.00210
4233.52,0.00098
4210.38,0.00096
4187.24,0.00048
4164.09,0.00096
4140.95,0.00149
4117.8,0.00175
4094.66,0.00149
4071.51,0.00041
4048.37,0.00037
4025.22,0.00075
4002.08,0.00108
3978.93,0.00091
3955.79,0.00085
3932.65,0.00123
3909.5,0.00125
3886.36,0.00115
3863.21,0.00212
3840.07,0.00122
3816.92,0.00207
3793.78,0.00151
3770.63,0.00169
3747.49,0.00135
3724.34,0.00096
3701.2,0.00076
3678.06,0.00135
3654.91,0.00134
3631.77,0.00152
3608.62,0.00180
3585.48,0.00119
3562.33,0.00136
3539.19,0.00097
3516.04,0.00225
3492.9,0.00078
3469.75,0.00046
3446.61,0.00105
3423.47,0.00203
3400.32,0.00113
3377.18,0.00132
3354.03,0.00199
3330.89,0.00131
3307.74,0.00097
3284.6,0.00192
3261.45,0.00094
3238.31,0.00080
3215.16,0.00286
3192.02,0.00003
3168.87,0.00083
3145.73,0.00054
3122.59,0.00168
3099.44,0.00103
3076.3,0.00086
3053.15,0.00145
3030.01,0.00075
3006.86,0.00031
2983.72,0.00094
2960.57,0.00072
2937.43,0.00097
2914.28,0.00064
2891.14,0.00092
2868,0.00139
2844.85,0.00102
2821.71,0.00038
2798.56,0.00087
2775.42,0.00061
2752.27,0.00077
2729.13,0.00085
2705.98,0.00042
2682.84,0.00050
2659.69,0.00081
2636.55,0.00021
2613.41,0.00038
2590.26,0.00052
2567.12,0.00020
2543.97,0.00056
2520.83,0.00048
2497.68,0.00046
2474.54,0.00072
2451.39,0.00020
2428.25,0.00096
2405.1,0.00069
2381.96,0.00007
2358.82,0.00135
2335.67,0.00123
2312.53,0.00075
2289.38,0.00048
2266.24,0.00032
2243.09,0.00122
2219.95,0.00068
2196.8,0.00024
2173.66,0.00105
2150.51,0.00077
2127.37,0.00099
2104.23,0.00049
2081.08,0.00045
2057.94,0.00018
2034.79,0.00083
2011.65,0.00033
1988.5,0.00076
1965.36,0.00063
1942.21,0.00072
1919.07,0.00063
1895.92,0.00028
1872.78,0.00062
1849.64,0.00074
1826.49,0.00056
1803.35,0.00076
1780.2,-0.00002
1757.06,0.00081
1733.91,0.00100
1710.77,0.00125
1687.62,0.00058
1664.48,0.00039
1641.33,0.00051
1618.19,0.00066
1595.05,0.00023
1571.9,0.00097
1548.76,0.00097
1525.61,0.00111
1502.47,0.00027
1479.32,0.00121
1456.18,0.00158
1433.03,0.00048
1409.89,0.00073
1386.74,0.00030
1363.6,0.00079
1340.46,0.00017
1317.31,0.00029
1294.17,0.00040
1271.02,0.00031
1247.88,0.00088
1224.73,0.00083
1201.59,0.00063
1178.44,0.00092
1155.3,0.00089
1132.15,0.00074
1109.01,0.00158
1085.87,0.00136
1062.72,0.00114
1039.58,0.00112
1016.43,0.00139
993.287,0.00054
970.142,0.00093
946.998,-0.00013
923.853,0.00136
900.709,0.00137
877.564,0.00122
854.42,0.00147
831.275,0.00082
808.131,0.00055
784.986,0.00085
761.842,0.00130
738.697,0.00098
715.552,0.00075
692.408,0.00141
669.263,0.00160
646.119,0.00033
622.974,0.00264
599.83,0.00204