File: 01_Data/PEVA/FTIR/IS/PEVA_0.18_IS_T_240809_R1.dpt
7497.33,0.03586
7474.19,0.04041
7451.04,0.04314
7427.9,0.02732
7404.75,0.04008
7381.6,0.04653
7358.46,0.02474
7335.31,0.03015
7312.17,0.03458
7289.02,0.03208
7265.87,0.03306
7242.73,0.03029
7219.58,0.03620
7196.44,0.03051
7173.29,0.03451
7150.15,0.02091
7127,0.03443
7103.85,0.03995
7080.71,0.03820
7057.56,0.03063
7034.42,0.03612
7011.27,0.04094
6988.12,0.03442
6964.98,0.03288
6941.83,0.03142
6918.69,0.03370
6895.54,0.03691
6872.39,0.03309
6849.25,0.02334
6826.1,0.03066
6802.96,0.03308
6779.81,0.03418
6756.67,0.03669
6733.52,0.03873
6710.37,0.02876
6687.23,0.02591
6664.08,0.03257
6640.94,0.03395
6617.79,0.02783
6594.64,0.03141
6571.5,0.02718
6548.35,0.02696
6525.21,0.03634
6502.06,0.03277
6478.92,0.03177
6455.77,0.02912
6432.62,0.03052
6409.48,0.03755
6386.33,0.03224
6363.19,0.03089
6340.04,0.02617
6316.89,0.03047
6293.75,0.03242
6270.6,0.03221
6247.46,0.03051
6224.31,0.03334
6201.16,0.03206
6178.02,0.02924
6154.87,0.03058
6131.73,0.02989
6108.58,0.03166
6085.44,0.03188
6062.29,0.02891
6039.14,0.03244
6016,0.03075
5992.85,0.02947
5969.71,0.02882
5946.56,0.02967
5923.41,0.02945
5900.27,0.02974
5877.12,0.03140
5853.98,0.02968
5830.83,0.02817
5807.68,0.03094
5784.54,0.03268
5761.39,0.03119
5738.25,0.03110
5715.1,0.03114
5691.96,0.02775
5668.81,0.03098
5645.66,0.02971
5622.52,0.02914
5599.37,0.03012
5576.23,0.02939
5553.08,0.03127
5529.93,0.02996
5506.79,0.03013
5483.64,0.03020
5460.5,0.03128
5437.35,0.02800
5414.21,0.03309
5391.06,0.03011
5367.91,0.03085
5344.77,0.03089
5321.62,0.02937
5298.48,0.03127
5275.33,0.03165
5252.18,0.03100
5229.04,0.02886
5205.89,0.02836
5182.75,0.03088
5159.6,0.02953
5136.45,0.03099
5113.31,0.03111
5090.16,0.02946
5067.02,0.03228
5043.87,0.03103
5020.73,0.02949
4997.58,0.02941
4974.43,0.02952
4951.29,0.03034
4928.14,0.03064
4905,0.03017
4881.85,0.03103
4858.7,0.02887
4835.56,0.03056
4812.41,0.03187
4789.27,0.02983
4766.12,0.03065
4742.97,0.03036
4719.83,0.03092
4696.68,0.02922
4673.54,0.02991
4650.39,0.02910
4627.25,0.02917
4604.1,0.03028
4580.95,0.03029
4557.81,0.03079
4534.66,0.03098
4511.52,0.03080
4488.37,0.02987
4465.22,0.03073
4442.08,0.03002
4418.93,0.02923
4395.79,0.02949
4372.64,0.02991
4349.49,0.03030
4326.35,0.03038
4303.2,0.03030
4280.06,0.02982
4256.91,0.02968
4233.77,0.02922
4210.62,0.02976
4187.47,0.03028
4164.33,0.03017
4141.18,0.02981
4118.04,0.03028
4094.89,0.02974
4071.74,0.02930
4048.6,0.02967
4025.45,0.02996
4002.31,0.02942
3979.16,0.02971
3956.02,0.03051
3932.87,0.03014
3909.72,0.02997
3886.58,0.03135
3863.43,0.03010
3840.29,0.03029
3817.14,0.03022
3793.99,0.02988
3770.85,0.03051
3747.7,0.02896
3724.56,0.02958
3701.41,0.02897
3678.26,0.03038
3655.12,0.02958
3631.97,0.02841
3608.83,0.02761
3585.68,0.02707
3562.54,0.02702
3539.39,0.02659
3516.24,0.02662
3493.1,0.02684
3469.95,0.02681
3446.81,0.02642
3423.66,0.02636
3400.51,0.02613
3377.37,0.02601
3354.22,0.02623
3331.08,0.02614
3307.93,0.02634
3284.78,0.02602
3261.64,0.02657
3238.49,0.02649
3215.35,0.02651
3192.2,0.02661
3169.06,0.02671
3145.91,0.02724
3122.76,0.02638
3099.62,0.02705
3076.47,0.02703
3053.33,0.02717
3030.18,0.02657
3007.03,0.02650
2983.89,0.02653
2960.74,0.02633
2937.6,0.02539
2914.45,0.02628
2891.31,0.02663
2868.16,0.02623
2845.01,0.02690
2821.87,0.02727
2798.72,0.02725
2775.58,0.02728
2752.43,0.02710
2729.28,0.02719
2706.14,0.02674
2682.99,0.02745
2659.85,0.02689
2636.7,0.02722
2613.55,0.02725
2590.41,0.02707
2567.26,0.02748
2544.12,0.02693
2520.97,0.02675
2497.83,0.02713
2474.68,0.02708
2451.53,0.02721
2428.39,0.02691
2405.24,0.02759
2382.1,0.02722
2358.95,0.02676
2335.8,0.02619
2312.66,0.02670
2289.51,0.02635
2266.37,0.02600
2243.22,0.02610
2220.07,0.02643
2196.93,0.02587
2173.78,0.02629
2150.64,0.02598
2127.49,0.02569
2104.35,0.02588
2081.2,0.02563
2058.05,0.02585
2034.91,0.02574
2011.76,0.02563
1988.62,0.02585
1965.47,0.02550
1942.32,0.02526
1919.18,0.02522
1896.03,0.02553
1872.89,0.02527
1849.74,0.02481
1826.6,0.02500
1803.45,0.02451
1780.3,0.02306
1757.16,0.02182
1734.01,0.02362
1710.87,0.02439
1687.72,0.02328
1664.57,0.02168
1641.43,0.02202
1618.28,0.02249
1595.14,0.02196
1571.99,0.02151
1548.84,0.02196
1525.7,0.02269
1502.55,0.02238
1479.41,0.02208
1456.26,0.02128
1433.12,0.02202
1409.97,0.02134
1386.82,0.02096
1363.68,0.02097
1340.53,0.02065
1317.39,0.01973
1294.24,0.02073
1271.09,0.02197
1247.95,0.02268
1224.8,0.02209
1201.66,0.02137
1178.51,0.02059
1155.36,0.02056
1132.22,0.02094
1109.07,0.02202
1085.93,0.02236
1062.78,0.02385
1039.64,0.02333
1016.49,0.02247
993.344,0.02398
970.198,0.02312
947.052,0.02304
923.906,0.02261
900.76,0.02153
877.614,0.02196
854.468,0.02253
831.323,0.02168
808.177,0.02045
785.031,0.02064
761.885,0.02019
738.739,0.01978
715.593,0.02013
692.447,0.01930
669.301,0.01848
646.156,0.01804
623.01,0.01806
599.864,0.02008