File: 01_Data/PEVA/FTIR/IS/PEVA_0.10_IS_Trans_S_240819_R8.dpt
7496.91,0.93807
7473.76,0.97005
7450.62,0.95307
7427.47,0.93879
7404.33,0.94050
7381.18,0.91887
7358.04,0.93680
7334.89,0.93491
7311.75,0.92103
7288.61,0.92465
7265.46,0.93093
7242.32,0.89697
7219.17,0.90817
7196.03,0.92053
7172.88,0.92648
7149.74,0.94186
7126.59,0.94542
7103.45,0.92668
7080.3,0.93451
7057.16,0.93419
7034.02,0.94345
7010.87,0.92505
6987.73,0.93666
6964.58,0.93932
6941.44,0.93114
6918.29,0.92950
6895.15,0.94347
6872,0.94032
6848.86,0.94048
6825.71,0.94437
6802.57,0.93314
6779.43,0.93889
6756.28,0.93974
6733.14,0.94919
6709.99,0.94848
6686.85,0.94318
6663.7,0.94603
6640.56,0.95109
6617.41,0.95112
6594.27,0.95131
6571.12,0.94899
6547.98,0.94390
6524.84,0.94433
6501.69,0.94895
6478.55,0.94458
6455.4,0.94459
6432.26,0.94444
6409.11,0.94015
6385.97,0.94922
6362.82,0.94780
6339.68,0.94702
6316.53,0.94466
6293.39,0.94932
6270.24,0.94825
6247.1,0.94884
6223.96,0.94019
6200.81,0.94601
6177.67,0.94800
6154.52,0.94249
6131.38,0.94093
6108.23,0.94217
6085.09,0.94332
6061.94,0.93752
6038.8,0.93811
6015.65,0.94067
5992.51,0.94012
5969.37,0.93656
5946.22,0.93417
5923.08,0.92590
5899.93,0.92602
5876.79,0.92111
5853.64,0.89788
5830.5,0.87852
5807.35,0.84702
5784.21,0.80117
5761.06,0.83291
5737.92,0.88523
5714.78,0.89889
5691.63,0.88618
5668.49,0.86072
5645.34,0.88847
5622.2,0.90073
5599.05,0.90409
5575.91,0.90490
5552.76,0.90029
5529.62,0.90347
5506.47,0.88941
5483.33,0.90550
5460.19,0.88406
5437.04,0.88912
5413.9,0.87119
5390.75,0.90281
5367.61,0.91247
5344.46,0.87360
5321.32,0.91536
5298.17,0.91520
5275.03,0.92225
5251.88,0.90378
5228.74,0.90102
5205.6,0.88705
5182.45,0.91391
5159.31,0.91548
5136.16,0.92472
5113.02,0.92407
5089.87,0.92498
5066.73,0.92793
5043.58,0.92564
5020.44,0.92518
4997.29,0.92600
4974.15,0.92610
4951.01,0.92575
4927.86,0.92971
4904.72,0.92820
4881.57,0.92602
4858.43,0.92751
4835.28,0.92807
4812.14,0.93035
4788.99,0.93492
4765.85,0.93226
4742.7,0.93238
4719.56,0.93585
4696.42,0.93174
4673.27,0.93203
4650.13,0.93530
4626.98,0.93310
4603.84,0.93245
4580.69,0.93519
4557.55,0.92989
4534.4,0.92944
4511.26,0.92883
4488.11,0.91999
4464.97,0.91707
4441.83,0.90960
4418.68,0.88574
4395.54,0.84591
4372.39,0.79217
4349.25,0.67708
4326.1,0.40785
4302.96,0.72859
4279.81,0.71615
4256.67,0.53815
4233.52,0.67828
4210.38,0.64674
4187.24,0.59286
4164.09,0.60217
4140.95,0.61088
4117.8,0.62652
4094.66,0.62775
4071.51,0.70416
4048.37,0.73695
4025.22,0.74503
4002.08,0.79357
3978.93,0.78914
3955.79,0.79148
3932.65,0.76027
3909.5,0.77757
3886.36,0.73959
3863.21,0.72694
3840.07,0.69853
3816.92,0.72143
3793.78,0.80729
3770.63,0.78769
3747.49,0.70141
3724.34,0.74038
3701.2,0.77429
3678.06,0.73887
3654.91,0.76371
3631.77,0.74026
3608.62,0.69633
3585.48,0.79720
3562.33,0.83522
3539.19,0.88289
3516.04,0.89461
3492.9,0.88350
3469.75,0.88301
3446.61,0.86234
3423.47,0.86548
3400.32,0.87161
3377.18,0.87070
3354.03,0.86576
3330.89,0.87678
3307.74,0.88146
3284.6,0.87592
3261.45,0.87719
3238.31,0.87836
3215.16,0.86230
3192.02,0.85142
3168.87,0.84582
3145.73,0.82941
3122.59,0.79367
3099.44,0.72402
3076.3,0.62238
3053.15,0.54852
3030.01,0.42698
3006.86,0.32489
2983.72,0.14538
2960.57,0.00103
2937.43,0.00044
2914.28,0.00090
2891.14,0.00065
2868,0.00065
2844.85,0.00121
2821.71,0.04156
2798.56,0.17979
2775.42,0.36047
2752.27,0.44636
2729.13,0.45962
2705.98,0.50986
2682.84,0.49076
2659.69,0.47006
2636.55,0.48411
2613.41,0.57404
2590.26,0.64863
2567.12,0.72259
2543.97,0.76189
2520.83,0.77970
2497.68,0.82277
2474.54,0.83504
2451.39,0.85370
2428.25,0.84899
2405.1,0.84675
2381.96,0.76852
2358.82,0.42404
2335.67,0.47457
2312.53,0.63360
2289.38,0.80283
2266.24,0.83934
2243.09,0.85601
2219.95,0.87762
2196.8,0.88069
2173.66,0.87734
2150.51,0.86860
2127.37,0.88955
2104.23,0.89616
2081.08,0.89131
2057.94,0.87386
2034.79,0.84811
2011.65,0.84673
1988.5,0.88096
1965.36,0.88694
1942.21,0.86708
1919.07,0.85394
1895.92,0.84481
1872.78,0.88612
1849.64,0.88649
1826.49,0.86440
1803.35,0.86491
1780.2,0.85356
1757.06,0.83003
1733.91,0.73405
1710.77,0.77153
1687.62,0.79959
1664.48,0.81629
1641.33,0.80771
1618.19,0.79581
1595.05,0.80726
1571.9,0.77632
1548.76,0.76906
1525.61,0.67306
1502.47,0.64029
1479.32,0.27926
1456.18,0.01987
1433.03,0.30340
1409.89,0.69727
1386.74,0.64658
1363.6,0.40520
1340.46,0.57026
1317.31,0.60871
1294.17,0.59938
1271.02,0.66085
1247.88,0.73294
1224.73,0.76524
1201.59,0.76229
1178.44,0.76162
1155.3,0.76393
1132.15,0.77173
1109.01,0.78427
1085.87,0.73479
1062.72,0.76220
1039.58,0.78900
1016.43,0.72296
993.287,0.82645
970.142,0.82393
946.998,0.83701
923.853,0.85539
900.709,0.84720
877.564,0.85158
854.42,0.86389
831.275,0.84585
808.131,0.82839
784.986,0.79221
761.842,0.73103
738.697,0.51441
715.552,0.13475
692.408,0.76382
669.263,0.72274
646.119,0.85969
622.974,0.89049
599.83,0.94410