File: 01_Data/PEVA/FTIR/IS/PEVA_0.26_IS_T_240809_R10.dpt
7497.2,0.04152
7474.05,0.03494
7450.91,0.03195
7427.76,0.04386
7404.62,0.03877
7381.47,0.03645
7358.33,0.02933
7335.18,0.02844
7312.04,0.03645
7288.89,0.03934
7265.75,0.04075
7242.6,0.03616
7219.45,0.03484
7196.31,0.03188
7173.16,0.03580
7150.02,0.03661
7126.87,0.02605
7103.73,0.02763
7080.58,0.03608
7057.44,0.02285
7034.29,0.04025
7011.15,0.04278
6988,0.03649
6964.85,0.03583
6941.71,0.03749
6918.56,0.01863
6895.42,0.03163
6872.27,0.03229
6849.13,0.03078
6825.98,0.03590
6802.84,0.03833
6779.69,0.02962
6756.55,0.03085
6733.4,0.02827
6710.25,0.03170
6687.11,0.03271
6663.96,0.02811
6640.82,0.03463
6617.67,0.03277
6594.53,0.03323
6571.38,0.03174
6548.24,0.03092
6525.09,0.03392
6501.95,0.02932
6478.8,0.03085
6455.65,0.03396
6432.51,0.02988
6409.36,0.03283
6386.22,0.02669
6363.07,0.02646
6339.93,0.02935
6316.78,0.03533
6293.64,0.03037
6270.49,0.03276
6247.34,0.03139
6224.2,0.02760
6201.05,0.02935
6177.91,0.02859
6154.76,0.02655
6131.62,0.03085
6108.47,0.03239
6085.33,0.02679
6062.18,0.02966
6039.04,0.03092
6015.89,0.02842
5992.74,0.02855
5969.6,0.03147
5946.45,0.02868
5923.31,0.03124
5900.16,0.02805
5877.02,0.03031
5853.87,0.03117
5830.73,0.02969
5807.58,0.03004
5784.44,0.03159
5761.29,0.03068
5738.14,0.03233
5715,0.02936
5691.85,0.03018
5668.71,0.03225
5645.56,0.03162
5622.42,0.03134
5599.27,0.03072
5576.13,0.03345
5552.98,0.03042
5529.84,0.02855
5506.69,0.03140
5483.54,0.02927
5460.4,0.03244
5437.25,0.03152
5414.11,0.03035
5390.96,0.03024
5367.82,0.03218
5344.67,0.02956
5321.53,0.03031
5298.38,0.03127
5275.24,0.03115
5252.09,0.03046
5228.94,0.03175
5205.8,0.02930
5182.65,0.03070
5159.51,0.03040
5136.36,0.03080
5113.22,0.03106
5090.07,0.03024
5066.93,0.02938
5043.78,0.03149
5020.64,0.03097
4997.49,0.03089
4974.34,0.03143
4951.2,0.03027
4928.05,0.03091
4904.91,0.03100
4881.76,0.03120
4858.62,0.03077
4835.47,0.03033
4812.33,0.03180
4789.18,0.03045
4766.04,0.03099
4742.89,0.03115
4719.74,0.03063
4696.6,0.03001
4673.45,0.03164
4650.31,0.03130
4627.16,0.03031
4604.02,0.03117
4580.87,0.03161
4557.73,0.03133
4534.58,0.03076
4511.44,0.03138
4488.29,0.03087
4465.14,0.03106
4442,0.02926
4418.85,0.03093
4395.71,0.03087
4372.56,0.03066
4349.42,0.03078
4326.27,0.03120
4303.13,0.03054
4279.98,0.03012
4256.84,0.02994
4233.69,0.02963
4210.54,0.03121
4187.4,0.03050
4164.25,0.03005
4141.11,0.03101
4117.96,0.03055
4094.82,0.03025
4071.67,0.03074
4048.53,0.03054
4025.38,0.03121
4002.24,0.02979
3979.09,0.03120
3955.94,0.03039
3932.8,0.03036
3909.65,0.03066
3886.51,0.03102
3863.36,0.02970
3840.22,0.03070
3817.07,0.03158
3793.93,0.03105
3770.78,0.03115
3747.64,0.02934
3724.49,0.03046
3701.34,0.02958
3678.2,0.03050
3655.05,0.02905
3631.91,0.02888
3608.76,0.02862
3585.62,0.02909
3562.47,0.02843
3539.33,0.02760
3516.18,0.02745
3493.04,0.02713
3469.89,0.02685
3446.74,0.02659
3423.6,0.02783
3400.45,0.02681
3377.31,0.02656
3354.16,0.02682
3331.02,0.02722
3307.87,0.02753
3284.73,0.02656
3261.58,0.02694
3238.44,0.02711
3215.29,0.02690
3192.14,0.02809
3169,0.02734
3145.85,0.02777
3122.71,0.02750
3099.56,0.02749
3076.42,0.02689
3053.27,0.02715
3030.13,0.02772
3006.98,0.02736
2983.84,0.02653
2960.69,0.02620
2937.54,0.02615
2914.4,0.02623
2891.25,0.02692
2868.11,0.02710
2844.96,0.02741
2821.82,0.02775
2798.67,0.02780
2775.53,0.02784
2752.38,0.02806
2729.24,0.02735
2706.09,0.02784
2682.94,0.02734
2659.8,0.02796
2636.65,0.02782
2613.51,0.02789
2590.36,0.02789
2567.22,0.02713
2544.07,0.02735
2520.93,0.02765
2497.78,0.02782
2474.64,0.02768
2451.49,0.02728
2428.34,0.02778
2405.2,0.02768
2382.05,0.02735
2358.91,0.02797
2335.76,0.02734
2312.62,0.02810
2289.47,0.02719
2266.33,0.02703
2243.18,0.02719
2220.04,0.02658
2196.89,0.02734
2173.74,0.02623
2150.6,0.02665
2127.45,0.02662
2104.31,0.02642
2081.16,0.02644
2058.02,0.02623
2034.87,0.02627
2011.73,0.02599
1988.58,0.02603
1965.44,0.02625
1942.29,0.02629
1919.14,0.02606
1896,0.02603
1872.85,0.02592
1849.71,0.02556
1826.56,0.02513
1803.42,0.02479
1780.27,0.02394
1757.13,0.02230
1733.98,0.02442
1710.84,0.02493
1687.69,0.02309
1664.54,0.02242
1641.4,0.02249
1618.25,0.02274
1595.11,0.02299
1571.96,0.02239
1548.82,0.02224
1525.67,0.02327
1502.53,0.02221
1479.38,0.02226
1456.24,0.02198
1433.09,0.02156
1409.94,0.02146
1386.8,0.02173
1363.65,0.02118
1340.51,0.02066
1317.36,0.01990
1294.22,0.02063
1271.07,0.02192
1247.93,0.02309
1224.78,0.02231
1201.64,0.02183
1178.49,0.02108
1155.34,0.02076
1132.2,0.02121
1109.05,0.02270
1085.91,0.02260
1062.76,0.02369
1039.62,0.02364
1016.47,0.02356
993.326,0.02467
970.18,0.02374
947.035,0.02306
923.89,0.02252
900.744,0.02247
877.599,0.02182
854.453,0.02261
831.308,0.02217
808.162,0.02237
785.017,0.02155
761.871,0.02072
738.726,0.02002
715.58,0.01984
692.435,0.02024
669.29,0.01738
646.144,0.01902
622.999,0.01758
599.853,0.02214