File: 01_Data/PEVA/FTIR/IS/PEVA_0.26_IS_Trans_T_240819_R5.dpt
7496.91,0.01899
7473.76,0.02906
7450.62,0.02169
7427.47,0.01979
7404.33,0.00603
7381.18,0.04713
7358.04,0.01478
7334.89,0.00846
7311.75,0.03468
7288.61,0.02607
7265.46,0.00656
7242.32,0.03761
7219.17,0.03900
7196.03,0.02052
7172.88,0.01838
7149.74,0.02161
7126.59,0.02922
7103.45,0.03815
7080.3,0.01302
7057.16,0.00891
7034.02,0.00826
7010.87,0.02324
6987.73,0.02728
6964.58,0.00778
6941.44,0.00335
6918.29,0.00225
6895.15,0.03172
6872,0.01135
6848.86,0.02396
6825.71,0.01360
6802.57,0.01348
6779.43,0.01181
6756.28,0.02795
6733.14,0.01921
6709.99,0.01251
6686.85,0.01301
6663.7,0.00570
6640.56,0.00481
6617.41,0.01002
6594.27,0.00582
6571.12,0.01781
6547.98,0.01276
6524.84,0.01162
6501.69,-0.00489
6478.55,0.00806
6455.4,0.01511
6432.26,0.00755
6409.11,0.00789
6385.97,0.00921
6362.82,0.00769
6339.68,0.01077
6316.53,-0.00152
6293.39,0.00726
6270.24,0.00802
6247.1,0.00643
6223.96,0.00949
6200.81,0.00503
6177.67,0.00626
6154.52,0.01381
6131.38,0.00335
6108.23,0.01153
6085.09,0.01411
6061.94,0.00898
6038.8,0.00016
6015.65,0.00694
5992.51,0.00758
5969.37,0.00468
5946.22,0.00705
5923.08,0.01027
5899.93,0.00593
5876.79,0.00282
5853.64,0.00561
5830.5,0.00265
5807.35,0.00542
5784.21,0.00467
5761.06,0.00408
5737.92,0.00475
5714.78,0.00272
5691.63,0.00572
5668.49,0.00281
5645.34,0.00354
5622.2,0.00010
5599.05,0.00540
5575.91,0.00520
5552.76,0.00381
5529.62,0.00326
5506.47,0.00513
5483.33,0.00274
5460.19,0.00133
5437.04,0.00773
5413.9,0.00374
5390.75,0.00138
5367.61,0.00382
5344.46,0.00256
5321.32,0.00281
5298.17,0.00491
5275.03,0.00447
5251.88,0.00310
5228.74,0.00278
5205.6,0.00572
5182.45,0.00272
5159.31,0.00439
5136.16,0.00036
5113.02,0.00200
5089.87,0.00494
5066.73,0.00062
5043.58,0.00362
5020.44,0.00116
4997.29,0.00339
4974.15,0.00130
4951.01,0.00199
4927.86,0.00099
4904.72,0.00282
4881.57,0.00403
4858.43,0.00150
4835.28,0.00265
4812.14,0.00107
4788.99,0.00185
4765.85,-0.00003
4742.7,0.00253
4719.56,0.00072
4696.42,0.00075
4673.27,0.00129
4650.13,0.00029
4626.98,0.00144
4603.84,0.00131
4580.69,0.00304
4557.55,0.00048
4534.4,0.00305
4511.26,0.00272
4488.11,0.00134
4464.97,0.00139
4441.83,0.00215
4418.68,0.00060
4395.54,0.00177
4372.39,0.00158
4349.25,0.00287
4326.1,0.00236
4302.96,0.00088
4279.81,0.00049
4256.67,0.00186
4233.52,0.00127
4210.38,0.00224
4187.24,0.00182
4164.09,0.00126
4140.95,0.00113
4117.8,0.00015
4094.66,0.00030
4071.51,0.00202
4048.37,0.00185
4025.22,0.00230
4002.08,0.00126
3978.93,-0.00012
3955.79,0.00038
3932.65,0.00152
3909.5,0.00159
3886.36,0.00130
3863.21,0.00315
3840.07,0.00416
3816.92,0.00256
3793.78,0.00141
3770.63,0.00230
3747.49,0.00092
3724.34,0.00043
3701.2,0.00233
3678.06,0.00207
3654.91,0.00279
3631.77,0.00037
3608.62,0.00130
3585.48,0.00198
3562.33,0.00198
3539.19,0.00099
3516.04,0.00127
3492.9,0.00297
3469.75,0.00200
3446.61,0.00201
3423.47,0.00123
3400.32,0.00211
3377.18,0.00220
3354.03,0.00237
3330.89,0.00135
3307.74,0.00159
3284.6,0.00312
3261.45,0.00123
3238.31,0.00313
3215.16,-0.00015
3192.02,0.00264
3168.87,0.00260
3145.73,-0.00038
3122.59,0.00049
3099.44,0.00083
3076.3,0.00127
3053.15,0.00173
3030.01,0.00129
3006.86,0.00168
2983.72,0.00113
2960.57,0.00221
2937.43,0.00105
2914.28,0.00179
2891.14,0.00154
2868,0.00130
2844.85,0.00047
2821.71,0.00082
2798.56,0.00078
2775.42,0.00129
2752.27,0.00065
2729.13,0.00162
2705.98,0.00028
2682.84,0.00083
2659.69,0.00038
2636.55,0.00069
2613.41,0.00163
2590.26,0.00100
2567.12,0.00009
2543.97,0.00112
2520.83,0.00077
2497.68,0.00096
2474.54,0.00056
2451.39,0.00073
2428.25,0.00095
2405.1,-0.00007
2381.96,0.00133
2358.82,0.00109
2335.67,0.00176
2312.53,0.00121
2289.38,0.00031
2266.24,0.00072
2243.09,0.00117
2219.95,0.00102
2196.8,0.00080
2173.66,0.00089
2150.51,0.00114
2127.37,0.00131
2104.23,0.00029
2081.08,0.00083
2057.94,0.00087
2034.79,0.00076
2011.65,0.00054
1988.5,0.00055
1965.36,0.00033
1942.21,0.00071
1919.07,0.00005
1895.92,0.00126
1872.78,0.00061
1849.64,0.00057
1826.49,0.00087
1803.35,0.00076
1780.2,0.00076
1757.06,0.00099
1733.91,0.00092
1710.77,0.00053
1687.62,0.00116
1664.48,0.00088
1641.33,0.00077
1618.19,0.00155
1595.05,0.00077
1571.9,0.00154
1548.76,0.00119
1525.61,0.00097
1502.47,-0.00009
1479.32,0.00063
1456.18,0.00048
1433.03,0.00055
1409.89,0.00052
1386.74,0.00093
1363.6,0.00046
1340.46,0.00082
1317.31,0.00101
1294.17,0.00085
1271.02,0.00048
1247.88,0.00031
1224.73,0.00062
1201.59,0.00086
1178.44,0.00052
1155.3,0.00142
1132.15,0.00063
1109.01,0.00161
1085.87,0.00140
1062.72,0.00136
1039.58,0.00136
1016.43,0.00038
993.287,0.00159
970.142,0.00040
946.998,0.00121
923.853,0.00084
900.709,0.00058
877.564,0.00110
854.42,0.00164
831.275,0.00102
808.131,0.00218
784.986,0.00098
761.842,0.00239
738.697,-0.00019
715.552,0.00139
692.408,0.00249
669.263,0.00238
646.119,0.00239
622.974,0.00388
599.83,0.00744