File: 01_Data/PEVA/FTIR/IS/PEVA_0.26_IS_S_240809_R5.dpt
7497.2,0.08715
7474.05,0.09506
7450.91,0.08986
7427.76,0.10323
7404.62,0.10256
7381.47,0.09937
7358.33,0.10362
7335.18,0.10597
7312.04,0.09068
7288.89,0.09059
7265.75,0.10290
7242.6,0.09919
7219.45,0.10471
7196.31,0.09441
7173.16,0.09298
7150.02,0.09997
7126.87,0.09514
7103.73,0.09530
7080.58,0.11128
7057.44,0.10050
7034.29,0.10313
7011.15,0.10310
6988,0.10394
6964.85,0.10414
6941.71,0.09958
6918.56,0.09578
6895.42,0.10416
6872.27,0.08981
6849.13,0.10116
6825.98,0.09985
6802.84,0.09819
6779.69,0.10506
6756.55,0.10270
6733.4,0.10055
6710.25,0.10155
6687.11,0.10412
6663.96,0.10141
6640.82,0.10113
6617.67,0.09905
6594.53,0.10219
6571.38,0.10215
6548.24,0.09649
6525.09,0.10360
6501.95,0.10737
6478.8,0.10586
6455.65,0.09938
6432.51,0.10466
6409.36,0.10322
6386.22,0.10273
6363.07,0.10152
6339.93,0.10077
6316.78,0.10343
6293.64,0.10084
6270.49,0.10224
6247.34,0.09851
6224.2,0.10275
6201.05,0.10013
6177.91,0.09950
6154.76,0.10170
6131.62,0.10127
6108.47,0.10433
6085.33,0.10116
6062.18,0.09973
6039.04,0.09788
6015.89,0.09640
5992.74,0.10076
5969.6,0.10294
5946.45,0.09946
5923.31,0.09844
5900.16,0.09465
5877.02,0.09146
5853.87,0.09008
5830.73,0.08381
5807.58,0.08836
5784.44,0.09211
5761.29,0.09611
5738.14,0.08978
5715,0.09662
5691.85,0.09534
5668.71,0.09695
5645.56,0.09827
5622.42,0.09859
5599.27,0.09721
5576.13,0.09906
5552.98,0.09837
5529.84,0.09890
5506.69,0.09941
5483.54,0.09785
5460.4,0.09918
5437.25,0.09879
5414.11,0.09940
5390.96,0.10099
5367.82,0.10072
5344.67,0.10061
5321.53,0.10238
5298.38,0.10111
5275.24,0.10078
5252.09,0.09944
5228.94,0.10195
5205.8,0.10070
5182.65,0.10167
5159.51,0.10292
5136.36,0.10143
5113.22,0.10228
5090.07,0.10075
5066.93,0.10249
5043.78,0.10256
5020.64,0.10249
4997.49,0.10168
4974.34,0.10310
4951.2,0.10173
4928.05,0.10486
4904.91,0.10268
4881.76,0.10405
4858.62,0.10314
4835.47,0.10246
4812.33,0.10361
4789.18,0.10250
4766.04,0.10284
4742.89,0.10349
4719.74,0.10117
4696.6,0.10008
4673.45,0.10099
4650.31,0.10103
4627.16,0.10004
4604.02,0.10081
4580.87,0.10283
4557.73,0.10170
4534.58,0.10164
4511.44,0.10097
4488.29,0.09930
4465.14,0.09878
4442,0.09399
4418.85,0.08597
4395.71,0.08047
4372.56,0.07607
4349.42,0.07050
4326.27,0.06823
4303.13,0.07410
4279.98,0.07294
4256.84,0.07471
4233.69,0.07429
4210.54,0.07308
4187.4,0.07465
4164.25,0.07504
4141.11,0.07825
4117.96,0.07873
4094.82,0.07774
4071.67,0.07751
4048.53,0.08154
4025.38,0.08240
4002.24,0.08461
3979.09,0.08750
3955.94,0.08813
3932.8,0.08781
3909.65,0.08858
3886.51,0.08871
3863.36,0.08946
3840.22,0.08863
3817.07,0.09011
3793.93,0.09173
3770.78,0.09279
3747.64,0.09206
3724.49,0.09406
3701.34,0.09164
3678.2,0.08563
3655.05,0.08613
3631.91,0.08661
3608.76,0.08266
3585.62,0.08138
3562.47,0.07783
3539.33,0.07556
3516.18,0.07448
3493.04,0.07325
3469.89,0.07063
3446.74,0.06717
3423.6,0.06446
3400.45,0.06764
3377.31,0.07092
3354.16,0.07264
3331.02,0.07178
3307.87,0.06588
3284.73,0.07007
3261.58,0.07611
3238.44,0.07615
3215.29,0.07608
3192.14,0.07538
3169,0.07422
3145.85,0.07374
3122.71,0.07175
3099.56,0.06837
3076.42,0.06458
3053.27,0.06319
3030.13,0.06165
3006.98,0.05846
2983.84,0.05636
2960.69,0.05879
2937.54,0.05939
2914.4,0.06214
2891.25,0.06245
2868.11,0.06200
2844.96,0.06365
2821.82,0.06227
2798.67,0.06480
2775.53,0.06834
2752.38,0.06890
2729.24,0.06819
2706.09,0.07186
2682.94,0.07247
2659.8,0.07342
2636.65,0.07394
2613.51,0.07349
2590.36,0.07352
2567.22,0.07389
2544.07,0.07518
2520.93,0.07591
2497.78,0.07897
2474.64,0.08044
2451.49,0.08100
2428.34,0.07887
2405.2,0.07601
2382.05,0.07423
2358.91,0.07659
2335.76,0.08054
2312.62,0.08249
2289.47,0.08066
2266.33,0.08028
2243.18,0.08033
2220.04,0.08099
2196.89,0.08376
2173.74,0.08495
2150.6,0.08406
2127.45,0.08371
2104.31,0.08312
2081.16,0.08180
2058.02,0.08199
2034.87,0.08312
2011.73,0.08426
1988.58,0.08177
1965.44,0.07814
1942.29,0.07306
1919.14,0.07960
1896,0.08045
1872.85,0.08026
1849.71,0.07621
1826.56,0.06659
1803.42,0.06672
1780.27,0.06094
1757.13,0.05512
1733.98,0.04995
1710.84,0.06936
1687.69,0.06116
1664.54,0.06086
1641.4,0.06057
1618.25,0.06319
1595.11,0.06411
1571.96,0.05875
1548.82,0.06044
1525.67,0.05911
1502.53,0.05674
1479.38,0.05445
1456.24,0.05668
1433.09,0.05555
1409.94,0.05617
1386.8,0.05448
1363.65,0.05453
1340.51,0.05249
1317.36,0.05263
1294.22,0.04756
1271.07,0.06507
1247.93,0.07190
1224.78,0.06783
1201.64,0.06305
1178.49,0.06047
1155.34,0.05863
1132.2,0.05424
1109.05,0.06401
1085.91,0.06662
1062.76,0.06449
1039.62,0.06261
1016.47,0.06514
993.326,0.06094
970.18,0.06055
947.035,0.06413
923.89,0.06269
900.744,0.06141
877.599,0.06149
854.453,0.06205
831.308,0.06156
808.162,0.06179
785.017,0.06059
761.871,0.05861
738.726,0.05162
715.58,0.06049
692.435,0.05846
669.29,0.05948
646.144,0.05656
622.999,0.06168
599.853,0.06700