File: 01_Data/PEVA/FTIR/IS/PEVA_0.18_IS_Trans_S_240819_R9.dpt
7496.91,0.91951
7473.76,0.92414
7450.62,0.92537
7427.47,0.92802
7404.33,0.93109
7381.18,0.93931
7358.04,0.92896
7334.89,0.91725
7311.75,0.91176
7288.61,0.92475
7265.46,0.92341
7242.32,0.91420
7219.17,0.91922
7196.03,0.90979
7172.88,0.89608
7149.74,0.91509
7126.59,0.91758
7103.45,0.91276
7080.3,0.90987
7057.16,0.91310
7034.02,0.92365
7010.87,0.91463
6987.73,0.91906
6964.58,0.91173
6941.44,0.90787
6918.29,0.91516
6895.15,0.93128
6872,0.92020
6848.86,0.92217
6825.71,0.93126
6802.57,0.93695
6779.43,0.92226
6756.28,0.92624
6733.14,0.92685
6709.99,0.92769
6686.85,0.94178
6663.7,0.93052
6640.56,0.93647
6617.41,0.92941
6594.27,0.93873
6571.12,0.93228
6547.98,0.93671
6524.84,0.92990
6501.69,0.92778
6478.55,0.92605
6455.4,0.93052
6432.26,0.93531
6409.11,0.93160
6385.97,0.93691
6362.82,0.93568
6339.68,0.93829
6316.53,0.93148
6293.39,0.93254
6270.24,0.93888
6247.1,0.93084
6223.96,0.93357
6200.81,0.92875
6177.67,0.93667
6154.52,0.92941
6131.38,0.92729
6108.23,0.92655
6085.09,0.93138
6061.94,0.92878
6038.8,0.92371
6015.65,0.91800
5992.51,0.91599
5969.37,0.91808
5946.22,0.91241
5923.08,0.90341
5899.93,0.90643
5876.79,0.88481
5853.64,0.85442
5830.5,0.82405
5807.35,0.78712
5784.21,0.72893
5761.06,0.78076
5737.92,0.84269
5714.78,0.85506
5691.63,0.83726
5668.49,0.81414
5645.34,0.85180
5622.2,0.86565
5599.05,0.87241
5575.91,0.87020
5552.76,0.86649
5529.62,0.87253
5506.47,0.86331
5483.33,0.87385
5460.19,0.86809
5437.04,0.87134
5413.9,0.86515
5390.75,0.88357
5367.61,0.89168
5344.46,0.86950
5321.32,0.89806
5298.17,0.89677
5275.03,0.89956
5251.88,0.89056
5228.74,0.89253
5205.6,0.87878
5182.45,0.89649
5159.31,0.89585
5136.16,0.89933
5113.02,0.90288
5089.87,0.90311
5066.73,0.90545
5043.58,0.90514
5020.44,0.90577
4997.29,0.90356
4974.15,0.90139
4951.01,0.90366
4927.86,0.90704
4904.72,0.90550
4881.57,0.90545
4858.43,0.90592
4835.28,0.90817
4812.14,0.90985
4788.99,0.91154
4765.85,0.90836
4742.7,0.90880
4719.56,0.90894
4696.42,0.90534
4673.27,0.89883
4650.13,0.90809
4626.98,0.91065
4603.84,0.91024
4580.69,0.90926
4557.55,0.90743
4534.4,0.90293
4511.26,0.89650
4488.11,0.88467
4464.97,0.86903
4441.83,0.83618
4418.68,0.80451
4395.54,0.75289
4372.39,0.67119
4349.25,0.51246
4326.1,0.27957
4302.96,0.59626
4279.81,0.57527
4256.67,0.38547
4233.52,0.53270
4210.38,0.50391
4187.24,0.45071
4164.09,0.46602
4140.95,0.48277
4117.8,0.49947
4094.66,0.51002
4071.51,0.58375
4048.37,0.61460
4025.22,0.63219
4002.08,0.68873
3978.93,0.68141
3955.79,0.69895
3932.65,0.68494
3909.5,0.69395
3886.36,0.68237
3863.21,0.68423
3840.07,0.67580
3816.92,0.69042
3793.78,0.74492
3770.63,0.74545
3747.49,0.70522
3724.34,0.72865
3701.2,0.73744
3678.06,0.70237
3654.91,0.69425
3631.77,0.68968
3608.62,0.64701
3585.48,0.75528
3562.33,0.78612
3539.19,0.81342
3516.04,0.81944
3492.9,0.81199
3469.75,0.72361
3446.61,0.68928
3423.47,0.79060
3400.32,0.80441
3377.18,0.79615
3354.03,0.80391
3330.89,0.81626
3307.74,0.81877
3284.6,0.81778
3261.45,0.81269
3238.31,0.80466
3215.16,0.78766
3192.02,0.76553
3168.87,0.74552
3145.73,0.72143
3122.59,0.67880
3099.44,0.58491
3076.3,0.45983
3053.15,0.36426
3030.01,0.23105
3006.86,0.14141
2983.72,0.03382
2960.57,0.00037
2937.43,0.00058
2914.28,0.00072
2891.14,0.00052
2868,0.00038
2844.85,0.00021
2821.71,0.00848
2798.56,0.08064
2775.42,0.21154
2752.27,0.27339
2729.13,0.29418
2705.98,0.34494
2682.84,0.31605
2659.69,0.32187
2636.55,0.34509
2613.41,0.43370
2590.26,0.51811
2567.12,0.60504
2543.97,0.65283
2520.83,0.67637
2497.68,0.70333
2474.54,0.68971
2451.39,0.74710
2428.25,0.75541
2405.1,0.74356
2381.96,0.71791
2358.82,0.53028
2335.67,0.53373
2312.53,0.61920
2289.38,0.71364
2266.24,0.74225
2243.09,0.76355
2219.95,0.79334
2196.8,0.77795
2173.66,0.74923
2150.51,0.74011
2127.37,0.78614
2104.23,0.79770
2081.08,0.79259
2057.94,0.77113
2034.79,0.72776
2011.65,0.72985
1988.5,0.79194
1965.36,0.78889
1942.21,0.77248
1919.07,0.75431
1895.92,0.70526
1872.78,0.70075
1849.64,0.69568
1826.49,0.63072
1803.35,0.54621
1780.2,0.38279
1757.06,0.04952
1733.91,0.00022
1710.77,0.14966
1687.62,0.33890
1664.48,0.52092
1641.33,0.54700
1618.19,0.63063
1595.05,0.64992
1571.9,0.60987
1548.76,0.57144
1525.61,0.50069
1502.47,0.42628
1479.32,0.10988
1456.18,0.00055
1433.03,0.02301
1409.89,0.26634
1386.74,0.07634
1363.6,0.00228
1340.46,0.21807
1317.31,0.24289
1294.17,0.12600
1271.02,0.01551
1247.88,0.00050
1224.73,0.00052
1201.59,0.09026
1178.44,0.20698
1155.3,0.17911
1132.15,0.12219
1109.01,0.15754
1085.87,0.12582
1062.72,0.07556
1039.58,0.02478
1016.43,0.00154
993.287,0.20705
970.142,0.18268
946.998,0.17307
923.853,0.38596
900.709,0.48443
877.564,0.50216
854.42,0.52992
831.275,0.60078
808.131,0.58651
784.986,0.62577
761.842,0.56493
738.697,0.30799
715.552,0.04892
692.408,0.69599
669.263,0.67245
646.119,0.56475
622.974,0.54176
599.83,0.51853