File: 01_Data/PEVA/FTIR/IS/PEVA_0.10_IS_Trans_S_240819_R4.dpt
7496.91,0.92829
7473.76,0.94336
7450.62,0.93332
7427.47,0.92709
7404.33,0.91706
7381.18,0.92871
7358.04,0.93170
7334.89,0.93192
7311.75,0.91515
7288.61,0.92552
7265.46,0.92783
7242.32,0.91801
7219.17,0.90173
7196.03,0.90967
7172.88,0.90922
7149.74,0.92656
7126.59,0.91764
7103.45,0.91513
7080.3,0.91014
7057.16,0.91882
7034.02,0.92508
7010.87,0.91438
6987.73,0.92128
6964.58,0.91189
6941.44,0.92434
6918.29,0.92069
6895.15,0.92084
6872,0.92112
6848.86,0.92724
6825.71,0.93485
6802.57,0.92115
6779.43,0.92737
6756.28,0.92499
6733.14,0.93332
6709.99,0.92980
6686.85,0.93225
6663.7,0.92972
6640.56,0.93352
6617.41,0.93163
6594.27,0.93002
6571.12,0.93237
6547.98,0.93211
6524.84,0.93001
6501.69,0.93401
6478.55,0.92795
6455.4,0.93307
6432.26,0.93573
6409.11,0.93335
6385.97,0.93544
6362.82,0.93626
6339.68,0.93066
6316.53,0.93386
6293.39,0.93451
6270.24,0.93055
6247.1,0.93851
6223.96,0.93577
6200.81,0.93163
6177.67,0.93719
6154.52,0.93349
6131.38,0.93124
6108.23,0.92879
6085.09,0.93151
6061.94,0.92902
6038.8,0.92399
6015.65,0.92376
5992.51,0.92294
5969.37,0.92122
5946.22,0.91848
5923.08,0.91657
5899.93,0.90914
5876.79,0.90819
5853.64,0.88462
5830.5,0.86723
5807.35,0.83728
5784.21,0.78538
5761.06,0.81940
5737.92,0.86971
5714.78,0.88041
5691.63,0.87180
5668.49,0.84777
5645.34,0.87209
5622.2,0.88524
5599.05,0.89224
5575.91,0.88937
5552.76,0.88774
5529.62,0.89350
5506.47,0.88501
5483.33,0.89210
5460.19,0.88822
5437.04,0.88946
5413.9,0.88163
5390.75,0.89980
5367.61,0.90213
5344.46,0.89112
5321.32,0.91052
5298.17,0.90643
5275.03,0.91218
5251.88,0.90421
5228.74,0.90079
5205.6,0.89771
5182.45,0.90691
5159.31,0.90817
5136.16,0.91223
5113.02,0.91189
5089.87,0.91166
5066.73,0.91663
5043.58,0.91320
5020.44,0.91578
4997.29,0.91560
4974.15,0.90968
4951.01,0.91208
4927.86,0.91790
4904.72,0.91399
4881.57,0.91424
4858.43,0.91592
4835.28,0.91575
4812.14,0.91836
4788.99,0.92107
4765.85,0.91938
4742.7,0.92078
4719.56,0.92271
4696.42,0.92003
4673.27,0.92061
4650.13,0.92237
4626.98,0.91971
4603.84,0.92106
4580.69,0.92313
4557.55,0.91926
4534.4,0.91716
4511.26,0.91528
4488.11,0.90903
4464.97,0.90385
4441.83,0.89461
4418.68,0.87459
4395.54,0.83336
4372.39,0.77981
4349.25,0.66698
4326.1,0.40109
4302.96,0.71824
4279.81,0.70641
4256.67,0.52758
4233.52,0.66923
4210.38,0.63736
4187.24,0.58243
4164.09,0.59312
4140.95,0.60103
4117.8,0.61532
4094.66,0.61772
4071.51,0.69259
4048.37,0.72674
4025.22,0.73704
4002.08,0.78180
3978.93,0.78120
3955.79,0.78750
3932.65,0.76837
3909.5,0.77360
3886.36,0.75862
3863.21,0.75997
3840.07,0.75343
3816.92,0.76295
3793.78,0.80899
3770.63,0.80949
3747.49,0.77238
3724.34,0.78026
3701.2,0.79553
3678.06,0.78007
3654.91,0.78372
3631.77,0.77651
3608.62,0.72459
3585.48,0.82433
3562.33,0.86069
3539.19,0.88232
3516.04,0.88744
3492.9,0.88590
3469.75,0.87630
3446.61,0.86348
3423.47,0.86809
3400.32,0.86663
3377.18,0.85829
3354.03,0.86481
3330.89,0.87015
3307.74,0.87050
3284.6,0.87317
3261.45,0.87134
3238.31,0.86594
3215.16,0.85829
3192.02,0.84653
3168.87,0.83376
3145.73,0.81798
3122.59,0.78985
3099.44,0.72077
3076.3,0.61609
3053.15,0.54113
3030.01,0.42186
3006.86,0.32036
2983.72,0.14250
2960.57,0.00131
2937.43,0.00075
2914.28,0.00084
2891.14,0.00079
2868,0.00108
2844.85,0.00124
2821.71,0.04007
2798.56,0.17563
2775.42,0.35329
2752.27,0.43813
2729.13,0.45114
2705.98,0.50053
2682.84,0.48383
2659.69,0.46223
2636.55,0.47521
2613.41,0.56467
2590.26,0.63969
2567.12,0.71085
2543.97,0.74832
2520.83,0.76998
2497.68,0.80984
2474.54,0.82062
2451.39,0.84335
2428.25,0.83647
2405.1,0.83200
2381.96,0.77856
2358.82,0.49402
2335.67,0.52648
2312.53,0.66407
2289.38,0.79887
2266.24,0.82882
2243.09,0.84523
2219.95,0.86581
2196.8,0.86459
2173.66,0.86671
2150.51,0.85602
2127.37,0.87440
2104.23,0.88372
2081.08,0.87995
2057.94,0.85792
2034.79,0.83604
2011.65,0.83544
1988.5,0.87175
1965.36,0.88056
1942.21,0.87171
1919.07,0.85177
1895.92,0.83948
1872.78,0.88419
1849.64,0.87873
1826.49,0.87560
1803.35,0.87416
1780.2,0.85799
1757.06,0.83977
1733.91,0.78414
1710.77,0.78572
1687.62,0.83904
1664.48,0.84212
1641.33,0.81295
1618.19,0.82105
1595.05,0.81864
1571.9,0.78990
1548.76,0.78874
1525.61,0.73622
1502.47,0.66307
1479.32,0.28008
1456.18,0.02013
1433.03,0.30725
1409.89,0.70219
1386.74,0.64692
1363.6,0.40784
1340.46,0.58403
1317.31,0.60045
1294.17,0.59021
1271.02,0.66409
1247.88,0.70821
1224.73,0.75666
1201.59,0.76439
1178.44,0.73354
1155.3,0.75559
1132.15,0.77241
1109.01,0.75241
1085.87,0.73014
1062.72,0.75869
1039.58,0.75674
1016.43,0.72237
993.287,0.81792
970.142,0.79000
946.998,0.84354
923.853,0.84186
900.709,0.81397
877.564,0.85970
854.42,0.84773
831.275,0.81449
808.131,0.83671
784.986,0.77729
761.842,0.70398
738.697,0.50551
715.552,0.13162
692.408,0.77862
669.263,0.75421
646.119,0.83391
622.974,0.89360
599.83,0.94318