File: 01_Data/PEVA/FTIR/IS/PEVA_0.18_IS_Trans_T_240819_R4.dpt
7496.91,0.02922
7473.76,0.03129
7450.62,0.04158
7427.47,0.01966
7404.33,0.03918
7381.18,0.01658
7358.04,0.01736
7334.89,0.02737
7311.75,0.02068
7288.61,0.02150
7265.46,0.01627
7242.32,0.03123
7219.17,0.03113
7196.03,0.00430
7172.88,0.02573
7149.74,0.01719
7126.59,0.01347
7103.45,0.01993
7080.3,0.02863
7057.16,0.01591
7034.02,0.00469
7010.87,0.01120
6987.73,0.02134
6964.58,0.02718
6941.44,0.01784
6918.29,0.01817
6895.15,0.01550
6872,0.00113
6848.86,0.01937
6825.71,0.01432
6802.57,0.00788
6779.43,0.01403
6756.28,0.00529
6733.14,0.00890
6709.99,0.01028
6686.85,0.01930
6663.7,0.01718
6640.56,0.01332
6617.41,0.00379
6594.27,0.00344
6571.12,0.01095
6547.98,0.01572
6524.84,0.01152
6501.69,0.01482
6478.55,0.01394
6455.4,0.01326
6432.26,0.01033
6409.11,0.00901
6385.97,0.00511
6362.82,0.00537
6339.68,0.00673
6316.53,0.00692
6293.39,0.00551
6270.24,0.00272
6247.1,0.00649
6223.96,0.01113
6200.81,0.01209
6177.67,0.00339
6154.52,0.00508
6131.38,0.00517
6108.23,0.00863
6085.09,0.00777
6061.94,0.00580
6038.8,0.00763
6015.65,0.00519
5992.51,0.00283
5969.37,0.00369
5946.22,0.00791
5923.08,0.00472
5899.93,0.00582
5876.79,0.00141
5853.64,0.00499
5830.5,0.00577
5807.35,0.00323
5784.21,0.00733
5761.06,0.00985
5737.92,0.00328
5714.78,0.00572
5691.63,0.00956
5668.49,0.00242
5645.34,0.00569
5622.2,0.00162
5599.05,-0.00101
5575.91,0.00273
5552.76,0.00441
5529.62,0.00362
5506.47,0.00735
5483.33,0.00507
5460.19,0.00379
5437.04,0.00689
5413.9,0.00408
5390.75,0.00156
5367.61,0.00508
5344.46,0.00474
5321.32,0.00135
5298.17,0.00312
5275.03,0.00590
5251.88,0.00276
5228.74,0.00359
5205.6,0.00487
5182.45,0.00410
5159.31,0.00417
5136.16,0.00391
5113.02,0.00331
5089.87,0.00233
5066.73,0.00263
5043.58,0.00240
5020.44,0.00242
4997.29,0.00350
4974.15,0.00173
4951.01,0.00139
4927.86,0.00510
4904.72,0.00239
4881.57,0.00190
4858.43,0.00112
4835.28,0.00468
4812.14,0.00238
4788.99,0.00329
4765.85,0.00265
4742.7,0.00167
4719.56,0.00210
4696.42,0.00128
4673.27,0.00215
4650.13,0.00248
4626.98,0.00361
4603.84,0.00233
4580.69,0.00066
4557.55,0.00354
4534.4,0.00126
4511.26,0.00246
4488.11,0.00327
4464.97,0.00060
4441.83,0.00192
4418.68,0.00353
4395.54,0.00191
4372.39,0.00235
4349.25,0.00135
4326.1,0.00180
4302.96,0.00143
4279.81,0.00228
4256.67,0.00078
4233.52,0.00158
4210.38,0.00164
4187.24,0.00225
4164.09,0.00208
4140.95,0.00243
4117.8,0.00112
4094.66,0.00188
4071.51,0.00126
4048.37,0.00161
4025.22,0.00138
4002.08,0.00199
3978.93,0.00165
3955.79,0.00212
3932.65,0.00108
3909.5,0.00092
3886.36,0.00090
3863.21,0.00077
3840.07,0.00210
3816.92,0.00249
3793.78,0.00115
3770.63,0.00073
3747.49,0.00092
3724.34,0.00092
3701.2,0.00237
3678.06,0.00295
3654.91,0.00247
3631.77,0.00171
3608.62,0.00263
3585.48,0.00267
3562.33,0.00126
3539.19,0.00047
3516.04,0.00023
3492.9,0.00017
3469.75,0.00019
3446.61,0.00127
3423.47,0.00264
3400.32,0.00173
3377.18,0.00159
3354.03,0.00059
3330.89,0.00228
3307.74,0.00208
3284.6,0.00043
3261.45,0.00100
3238.31,0.00109
3215.16,0.00335
3192.02,-0.00001
3168.87,0.00076
3145.73,0.00216
3122.59,0.00164
3099.44,0.00108
3076.3,0.00147
3053.15,0.00050
3030.01,0.00095
3006.86,0.00097
2983.72,0.00129
2960.57,0.00122
2937.43,0.00106
2914.28,0.00109
2891.14,0.00056
2868,0.00084
2844.85,0.00137
2821.71,0.00088
2798.56,0.00176
2775.42,0.00058
2752.27,0.00124
2729.13,0.00058
2705.98,0.00055
2682.84,0.00106
2659.69,0.00060
2636.55,0.00064
2613.41,0.00038
2590.26,0.00108
2567.12,0.00142
2543.97,0.00004
2520.83,0.00126
2497.68,0.00059
2474.54,0.00135
2451.39,0.00093
2428.25,-0.00007
2405.1,0.00132
2381.96,0.00096
2358.82,0.00196
2335.67,0.00104
2312.53,0.00068
2289.38,0.00034
2266.24,0.00102
2243.09,0.00051
2219.95,0.00054
2196.8,0.00071
2173.66,0.00077
2150.51,0.00097
2127.37,0.00048
2104.23,0.00030
2081.08,0.00058
2057.94,0.00050
2034.79,0.00022
2011.65,0.00114
1988.5,0.00077
1965.36,0.00059
1942.21,0.00019
1919.07,-0.00011
1895.92,0.00028
1872.78,0.00033
1849.64,0.00051
1826.49,0.00073
1803.35,0.00078
1780.2,0.00070
1757.06,0.00038
1733.91,0.00036
1710.77,0.00085
1687.62,0.00059
1664.48,0.00061
1641.33,0.00100
1618.19,0.00061
1595.05,0.00054
1571.9,0.00120
1548.76,0.00091
1525.61,0.00118
1502.47,0.00068
1479.32,0.00054
1456.18,0.00150
1433.03,0.00109
1409.89,0.00074
1386.74,0.00093
1363.6,0.00118
1340.46,0.00021
1317.31,0.00036
1294.17,0.00126
1271.02,0.00057
1247.88,0.00054
1224.73,0.00082
1201.59,0.00016
1178.44,0.00039
1155.3,0.00055
1132.15,0.00092
1109.01,0.00020
1085.87,0.00064
1062.72,0.00106
1039.58,0.00132
1016.43,0.00122
993.287,0.00093
970.142,0.00173
946.998,0.00093
923.853,0.00121
900.709,0.00006
877.564,0.00106
854.42,0.00150
831.275,0.00027
808.131,0.00159
784.986,0.00071
761.842,0.00225
738.697,0.00086
715.552,0.00137
692.408,0.00371
669.263,0.00366
646.119,0.00166
622.974,0.00384
599.83,0.00276