File: 01_Data/PEVA/FTIR/IS/PEVA_0.26_IS_Trans_S_240819_R1.dpt
7496.91,0.94280
7473.76,0.93096
7450.62,0.93565
7427.47,0.92186
7404.33,0.93155
7381.18,0.91390
7358.04,0.91627
7334.89,0.93140
7311.75,0.91847
7288.61,0.92254
7265.46,0.91076
7242.32,0.91267
7219.17,0.91605
7196.03,0.90753
7172.88,0.91182
7149.74,0.91533
7126.59,0.90729
7103.45,0.92534
7080.3,0.90693
7057.16,0.91251
7034.02,0.91214
7010.87,0.91384
6987.73,0.90978
6964.58,0.92079
6941.44,0.92758
6918.29,0.92302
6895.15,0.91389
6872,0.92135
6848.86,0.92042
6825.71,0.91990
6802.57,0.91623
6779.43,0.92822
6756.28,0.92220
6733.14,0.93176
6709.99,0.93682
6686.85,0.92521
6663.7,0.92941
6640.56,0.93109
6617.41,0.92268
6594.27,0.92230
6571.12,0.92171
6547.98,0.93369
6524.84,0.93317
6501.69,0.92726
6478.55,0.93160
6455.4,0.93013
6432.26,0.93450
6409.11,0.93119
6385.97,0.93383
6362.82,0.93722
6339.68,0.93797
6316.53,0.92950
6293.39,0.92909
6270.24,0.92709
6247.1,0.93094
6223.96,0.93335
6200.81,0.93409
6177.67,0.92488
6154.52,0.92290
6131.38,0.92190
6108.23,0.92143
6085.09,0.91466
6061.94,0.90314
6038.8,0.89192
6015.65,0.87673
5992.51,0.89258
5969.37,0.89608
5946.22,0.88679
5923.08,0.87079
5899.93,0.84338
5876.79,0.80798
5853.64,0.76967
5830.5,0.72043
5807.35,0.75356
5784.21,0.80251
5761.06,0.81652
5737.92,0.81492
5714.78,0.81536
5691.63,0.81703
5668.49,0.83833
5645.34,0.84216
5622.2,0.85251
5599.05,0.86441
5575.91,0.86837
5552.76,0.87170
5529.62,0.87260
5506.47,0.87214
5483.33,0.87564
5460.19,0.86777
5437.04,0.87610
5413.9,0.87134
5390.75,0.88452
5367.61,0.89312
5344.46,0.87842
5321.32,0.89736
5298.17,0.89682
5275.03,0.89786
5251.88,0.89066
5228.74,0.89293
5205.6,0.88699
5182.45,0.89766
5159.31,0.89504
5136.16,0.89798
5113.02,0.89714
5089.87,0.90088
5066.73,0.90222
5043.58,0.90382
5020.44,0.90409
4997.29,0.90454
4974.15,0.90536
4951.01,0.90632
4927.86,0.90482
4904.72,0.90639
4881.57,0.90534
4858.43,0.90599
4835.28,0.90703
4812.14,0.90418
4788.99,0.90281
4765.85,0.90307
4742.7,0.90165
4719.56,0.88954
4696.42,0.87459
4673.27,0.87264
4650.13,0.87896
4626.98,0.86806
4603.84,0.88686
4580.69,0.88401
4557.55,0.89024
4534.4,0.88787
4511.26,0.88039
4488.11,0.86053
4464.97,0.84474
4441.83,0.79504
4418.68,0.69773
4395.54,0.62018
4372.39,0.54104
4349.25,0.41242
4326.1,0.37564
4302.96,0.47851
4279.81,0.47289
4256.67,0.49000
4233.52,0.48219
4210.38,0.46788
4187.24,0.50703
4164.09,0.50134
4140.95,0.56216
4117.8,0.58587
4094.66,0.54825
4071.51,0.54022
4048.37,0.61807
4025.22,0.63068
4002.08,0.65428
3978.93,0.68846
3955.79,0.70272
3932.65,0.69746
3909.5,0.70648
3886.36,0.70517
3863.21,0.69981
3840.07,0.69288
3816.92,0.71136
3793.78,0.74922
3770.63,0.75016
3747.49,0.72026
3724.34,0.74926
3701.2,0.74030
3678.06,0.65320
3654.91,0.68399
3631.77,0.67363
3608.62,0.64021
3585.48,0.61405
3562.33,0.57350
3539.19,0.55099
3516.04,0.53487
3492.9,0.48879
3469.75,0.42731
3446.61,0.36736
3423.47,0.28972
3400.32,0.38496
3377.18,0.46889
3354.03,0.50400
3330.89,0.49049
3307.74,0.35080
3284.6,0.45600
3261.45,0.55853
3238.31,0.56872
3215.16,0.55408
3192.02,0.54087
3168.87,0.54519
3145.73,0.53416
3122.59,0.49158
3099.44,0.41734
3076.3,0.33480
3053.15,0.27148
3030.01,0.24177
3006.86,0.08401
2983.72,-0.00007
2960.57,0.00026
2937.43,0.00080
2914.28,0.00069
2891.14,0.00030
2868,0.00057
2844.85,0.00043
2821.71,0.06155
2798.56,0.21681
2775.42,0.34534
2752.27,0.36302
2729.13,0.33929
2705.98,0.44322
2682.84,0.46123
2659.69,0.48271
2636.55,0.50100
2613.41,0.48587
2590.26,0.48667
2567.12,0.49524
2543.97,0.51562
2520.83,0.54225
2497.68,0.58998
2474.54,0.60927
2451.39,0.61622
2428.25,0.58705
2405.1,0.54434
2381.96,0.49952
2358.82,0.44961
2335.67,0.53591
2312.53,0.60762
2289.38,0.61617
2266.24,0.61462
2243.09,0.62240
2219.95,0.63187
2196.8,0.66860
2173.66,0.69357
2150.51,0.68506
2127.37,0.67824
2104.23,0.67174
2081.08,0.65815
2057.94,0.66061
2034.79,0.67725
2011.65,0.69482
1988.5,0.66127
1965.36,0.60724
1942.21,0.51607
1919.07,0.62760
1895.92,0.64597
1872.78,0.65161
1849.64,0.59257
1826.49,0.41312
1803.35,0.42438
1780.2,0.29867
1757.06,0.08659
1733.91,0.00060
1710.77,0.00058
1687.62,0.04946
1664.48,0.18378
1641.33,0.19813
1618.19,0.29938
1595.05,0.34917
1571.9,0.16347
1548.76,0.26574
1525.61,0.24607
1502.47,0.07611
1479.32,0.03868
1456.18,0.00042
1433.03,0.00018
1409.89,0.00018
1386.74,0.00029
1363.6,0.00173
1340.46,0.00026
1317.31,0.00048
1294.17,0.00017
1271.02,0.00012
1247.88,0.00039
1224.73,0.00037
1201.59,0.00157
1178.44,0.01209
1155.3,0.00562
1132.15,0.00023
1109.01,0.00057
1085.87,0.00015
1062.72,0.01450
1039.58,0.02326
1016.43,0.00075
993.287,0.00252
970.142,0.00003
946.998,0.00067
923.853,0.00409
900.709,0.02621
877.564,0.00485
854.42,0.03941
831.275,0.02954
808.131,0.16215
784.986,0.10220
761.842,0.10249
738.697,0.00552
715.552,0.02276
692.408,0.00164
669.263,0.01280
646.119,0.00087
622.974,0.00173
599.83,0.00363