File: 01_Data/PEVA/FTIR/IS/PEVA_0.26_IS_Trans_S_240819_R6.dpt
7496.91,0.93550
7473.76,0.92449
7450.62,0.93765
7427.47,0.94650
7404.33,0.93460
7381.18,0.93471
7358.04,0.93518
7334.89,0.91917
7311.75,0.91403
7288.61,0.93305
7265.46,0.92401
7242.32,0.91166
7219.17,0.90573
7196.03,0.92202
7172.88,0.91739
7149.74,0.92270
7126.59,0.92430
7103.45,0.90603
7080.3,0.91738
7057.16,0.91322
7034.02,0.91998
7010.87,0.92450
6987.73,0.91016
6964.58,0.92768
6941.44,0.92538
6918.29,0.92141
6895.15,0.91872
6872,0.92977
6848.86,0.92471
6825.71,0.92791
6802.57,0.92743
6779.43,0.92880
6756.28,0.92255
6733.14,0.92811
6709.99,0.93175
6686.85,0.93718
6663.7,0.93048
6640.56,0.93750
6617.41,0.93463
6594.27,0.93218
6571.12,0.92843
6547.98,0.93167
6524.84,0.93907
6501.69,0.93101
6478.55,0.94003
6455.4,0.93992
6432.26,0.93276
6409.11,0.93359
6385.97,0.93056
6362.82,0.93278
6339.68,0.93581
6316.53,0.94122
6293.39,0.93604
6270.24,0.93554
6247.1,0.93379
6223.96,0.93530
6200.81,0.93020
6177.67,0.92941
6154.52,0.93159
6131.38,0.92356
6108.23,0.92864
6085.09,0.92098
6061.94,0.90763
6038.8,0.89454
6015.65,0.88404
5992.51,0.89525
5969.37,0.90399
5946.22,0.89523
5923.08,0.87018
5899.93,0.85003
5876.79,0.81205
5853.64,0.77334
5830.5,0.72352
5807.35,0.76091
5784.21,0.80566
5761.06,0.82161
5737.92,0.81585
5714.78,0.81671
5691.63,0.82287
5668.49,0.83930
5645.34,0.84850
5622.2,0.85717
5599.05,0.86489
5575.91,0.87035
5552.76,0.87369
5529.62,0.87879
5506.47,0.87608
5483.33,0.87674
5460.19,0.87090
5437.04,0.87766
5413.9,0.87849
5390.75,0.88626
5367.61,0.89368
5344.46,0.88098
5321.32,0.89906
5298.17,0.89836
5275.03,0.89982
5251.88,0.89426
5228.74,0.89577
5205.6,0.88985
5182.45,0.89776
5159.31,0.90011
5136.16,0.90239
5113.02,0.90091
5089.87,0.90295
5066.73,0.90583
5043.58,0.90715
5020.44,0.90646
4997.29,0.90765
4974.15,0.90718
4951.01,0.90927
4927.86,0.90748
4904.72,0.90855
4881.57,0.90746
4858.43,0.90693
4835.28,0.90866
4812.14,0.90623
4788.99,0.90321
4765.85,0.90503
4742.7,0.90457
4719.56,0.89275
4696.42,0.87786
4673.27,0.87551
4650.13,0.88097
4626.98,0.86966
4603.84,0.89000
4580.69,0.88553
4557.55,0.89330
4534.4,0.88932
4511.26,0.88341
4488.11,0.86202
4464.97,0.84597
4441.83,0.79718
4418.68,0.69939
4395.54,0.61996
4372.39,0.54212
4349.25,0.41329
4326.1,0.37564
4302.96,0.47912
4279.81,0.47256
4256.67,0.48964
4233.52,0.48239
4210.38,0.46778
4187.24,0.50765
4164.09,0.50126
4140.95,0.56214
4117.8,0.58655
4094.66,0.54795
4071.51,0.54125
4048.37,0.61955
4025.22,0.63173
4002.08,0.65498
3978.93,0.68985
3955.79,0.70477
3932.65,0.69994
3909.5,0.70894
3886.36,0.70848
3863.21,0.70226
3840.07,0.69888
3816.92,0.71802
3793.78,0.75142
3770.63,0.75296
3747.49,0.72742
3724.34,0.75810
3701.2,0.74739
3678.06,0.65749
3654.91,0.68564
3631.77,0.67836
3608.62,0.64440
3585.48,0.61725
3562.33,0.57587
3539.19,0.55137
3516.04,0.53457
3492.9,0.48894
3469.75,0.42727
3446.61,0.36685
3423.47,0.28991
3400.32,0.38369
3377.18,0.46768
3354.03,0.50286
3330.89,0.48778
3307.74,0.34864
3284.6,0.45382
3261.45,0.55551
3238.31,0.56645
3215.16,0.55243
3192.02,0.53991
3168.87,0.54365
3145.73,0.53261
3122.59,0.49014
3099.44,0.41717
3076.3,0.33429
3053.15,0.27062
3030.01,0.24049
3006.86,0.08344
2983.72,0.00022
2960.57,0.00019
2937.43,0.00043
2914.28,0.00072
2891.14,0.00031
2868,0.00023
2844.85,0.00126
2821.71,0.06116
2798.56,0.21611
2775.42,0.34480
2752.27,0.36274
2729.13,0.33842
2705.98,0.44267
2682.84,0.46035
2659.69,0.48238
2636.55,0.50069
2613.41,0.48604
2590.26,0.48677
2567.12,0.49473
2543.97,0.51578
2520.83,0.54297
2497.68,0.58988
2474.54,0.60977
2451.39,0.61691
2428.25,0.58712
2405.1,0.54455
2381.96,0.50569
2358.82,0.48961
2335.67,0.56982
2312.53,0.62564
2289.38,0.61965
2266.24,0.61628
2243.09,0.62309
2219.95,0.63204
2196.8,0.66868
2173.66,0.69411
2150.51,0.68585
2127.37,0.67941
2104.23,0.67190
2081.08,0.65801
2057.94,0.66031
2034.79,0.67788
2011.65,0.69571
1988.5,0.66259
1965.36,0.60761
1942.21,0.51680
1919.07,0.62824
1895.92,0.64643
1872.78,0.65282
1849.64,0.59394
1826.49,0.41419
1803.35,0.42561
1780.2,0.29843
1757.06,0.08593
1733.91,0.00033
1710.77,0.00023
1687.62,0.04850
1664.48,0.18269
1641.33,0.19701
1618.19,0.29860
1595.05,0.34861
1571.9,0.16390
1548.76,0.26570
1525.61,0.24766
1502.47,0.07659
1479.32,0.03859
1456.18,0.00044
1433.03,0.00052
1409.89,0.00011
1386.74,0.00020
1363.6,0.00141
1340.46,0.00031
1317.31,0.00052
1294.17,0.00014
1271.02,0.00021
1247.88,0.00019
1224.73,0.00023
1201.59,0.00132
1178.44,0.01193
1155.3,0.00569
1132.15,0.00057
1109.01,0.00088
1085.87,0.00085
1062.72,0.01425
1039.58,0.02298
1016.43,0.00119
993.287,0.00205
970.142,0.00019
946.998,0.00041
923.853,0.00378
900.709,0.02601
877.564,0.00464
854.42,0.04011
831.275,0.02878
808.131,0.16205
784.986,0.10262
761.842,0.10223
738.697,0.00468
715.552,0.02247
692.408,0.00073
669.263,0.01321
646.119,0.00065
622.974,0.00102
599.83,0.00528