File: 01_Data/PEVA/FTIR/IS/PEVA_0.18_IS_T_240809_R12.dpt
7497.33,0.02426
7474.19,0.04606
7451.04,0.04706
7427.9,0.03367
7404.75,0.02881
7381.6,0.04378
7358.46,0.04129
7335.31,0.04137
7312.17,0.04121
7289.02,0.03709
7265.87,0.04049
7242.73,0.04018
7219.58,0.03267
7196.44,0.03272
7173.29,0.04177
7150.15,0.02621
7127,0.04179
7103.85,0.03159
7080.71,0.03218
7057.56,0.03329
7034.42,0.03636
7011.27,0.03409
6988.12,0.03251
6964.98,0.03576
6941.83,0.03272
6918.69,0.03575
6895.54,0.03330
6872.39,0.03087
6849.25,0.03429
6826.1,0.03361
6802.96,0.03343
6779.81,0.03048
6756.67,0.04019
6733.52,0.03158
6710.37,0.03656
6687.23,0.02854
6664.08,0.02930
6640.94,0.03198
6617.79,0.03378
6594.64,0.02885
6571.5,0.03659
6548.35,0.03203
6525.21,0.03272
6502.06,0.02774
6478.92,0.03469
6455.77,0.03081
6432.62,0.02953
6409.48,0.02638
6386.33,0.03158
6363.19,0.03359
6340.04,0.03025
6316.89,0.02893
6293.75,0.02936
6270.6,0.02995
6247.46,0.03078
6224.31,0.03347
6201.16,0.03048
6178.02,0.03005
6154.87,0.03278
6131.73,0.03074
6108.58,0.02856
6085.44,0.03307
6062.29,0.03096
6039.14,0.02796
6016,0.02861
5992.85,0.02942
5969.71,0.02747
5946.56,0.02992
5923.41,0.02979
5900.27,0.03373
5877.12,0.03134
5853.98,0.02985
5830.83,0.03045
5807.68,0.03043
5784.54,0.02911
5761.39,0.03278
5738.25,0.03100
5715.1,0.03313
5691.96,0.02906
5668.81,0.02991
5645.66,0.02885
5622.52,0.02998
5599.37,0.03142
5576.23,0.03072
5553.08,0.03066
5529.93,0.03106
5506.79,0.03119
5483.64,0.03223
5460.5,0.03209
5437.35,0.03259
5414.21,0.02976
5391.06,0.03054
5367.91,0.02942
5344.77,0.03005
5321.62,0.03119
5298.48,0.03155
5275.33,0.03106
5252.18,0.03116
5229.04,0.03033
5205.89,0.03123
5182.75,0.03064
5159.6,0.02975
5136.45,0.02971
5113.31,0.03073
5090.16,0.03135
5067.02,0.02900
5043.87,0.02996
5020.73,0.03076
4997.58,0.03069
4974.43,0.03052
4951.29,0.02951
4928.14,0.03101
4905,0.03089
4881.85,0.03081
4858.7,0.02959
4835.56,0.03117
4812.41,0.03050
4789.27,0.03061
4766.12,0.03111
4742.97,0.03119
4719.83,0.03051
4696.68,0.03053
4673.54,0.02966
4650.39,0.03004
4627.25,0.03046
4604.1,0.02971
4580.95,0.02980
4557.81,0.02984
4534.66,0.03060
4511.52,0.03061
4488.37,0.02981
4465.22,0.03047
4442.08,0.02970
4418.93,0.03104
4395.79,0.03022
4372.64,0.02986
4349.49,0.02887
4326.35,0.03056
4303.2,0.03004
4280.06,0.02998
4256.91,0.02963
4233.77,0.02929
4210.62,0.03012
4187.47,0.02963
4164.33,0.03058
4141.18,0.03044
4118.04,0.03048
4094.89,0.03077
4071.74,0.02954
4048.6,0.03027
4025.45,0.03048
4002.31,0.02989
3979.16,0.02984
3956.02,0.03069
3932.87,0.03066
3909.72,0.02994
3886.58,0.03010
3863.43,0.02972
3840.29,0.03037
3817.14,0.03009
3793.99,0.02902
3770.85,0.03078
3747.7,0.03145
3724.56,0.03025
3701.41,0.02946
3678.26,0.02955
3655.12,0.02919
3631.97,0.02893
3608.83,0.02968
3585.68,0.02733
3562.54,0.02729
3539.39,0.02669
3516.24,0.02645
3493.1,0.02696
3469.95,0.02580
3446.81,0.02623
3423.66,0.02658
3400.51,0.02664
3377.37,0.02666
3354.22,0.02638
3331.08,0.02628
3307.93,0.02673
3284.78,0.02704
3261.64,0.02633
3238.49,0.02718
3215.35,0.02618
3192.2,0.02666
3169.06,0.02719
3145.91,0.02645
3122.76,0.02647
3099.62,0.02728
3076.47,0.02705
3053.33,0.02693
3030.18,0.02681
3007.03,0.02668
2983.89,0.02585
2960.74,0.02570
2937.6,0.02600
2914.45,0.02633
2891.31,0.02632
2868.16,0.02653
2845.01,0.02728
2821.87,0.02744
2798.72,0.02769
2775.58,0.02767
2752.43,0.02747
2729.28,0.02732
2706.14,0.02787
2682.99,0.02737
2659.85,0.02729
2636.7,0.02775
2613.55,0.02689
2590.41,0.02708
2567.26,0.02686
2544.12,0.02758
2520.97,0.02680
2497.83,0.02714
2474.68,0.02688
2451.53,0.02683
2428.39,0.02702
2405.24,0.02720
2382.1,0.02697
2358.95,0.02775
2335.8,0.02733
2312.66,0.02670
2289.51,0.02632
2266.37,0.02666
2243.22,0.02658
2220.07,0.02654
2196.93,0.02619
2173.78,0.02616
2150.64,0.02650
2127.49,0.02616
2104.35,0.02608
2081.2,0.02575
2058.05,0.02641
2034.91,0.02600
2011.76,0.02577
1988.62,0.02553
1965.47,0.02578
1942.32,0.02539
1919.18,0.02570
1896.03,0.02567
1872.89,0.02505
1849.74,0.02488
1826.6,0.02480
1803.45,0.02419
1780.3,0.02347
1757.16,0.02155
1734.01,0.02363
1710.87,0.02412
1687.72,0.02326
1664.57,0.02180
1641.43,0.02181
1618.28,0.02230
1595.14,0.02233
1571.99,0.02222
1548.84,0.02235
1525.7,0.02268
1502.55,0.02186
1479.41,0.02212
1456.26,0.02208
1433.12,0.02132
1409.97,0.02133
1386.82,0.02081
1363.68,0.02117
1340.53,0.02018
1317.39,0.01967
1294.24,0.02067
1271.09,0.02187
1247.95,0.02255
1224.8,0.02218
1201.66,0.02151
1178.51,0.02043
1155.36,0.02000
1132.22,0.02121
1109.07,0.02223
1085.93,0.02148
1062.78,0.02396
1039.64,0.02338
1016.49,0.02285
993.344,0.02486
970.198,0.02416
947.052,0.02322
923.906,0.02281
900.76,0.02236
877.614,0.02238
854.468,0.02193
831.323,0.02193
808.177,0.02129
785.031,0.02066
761.885,0.02087
738.739,0.02111
715.593,0.02025
692.447,0.01811
669.301,0.01879
646.156,0.01909
623.01,0.01969
599.864,0.01863