File: 01_Data/PEVA/FTIR/IS/PEVA_0.10_IS_T_240808_R6.dpt
7496.93,0.03497
7473.78,0.03415
7450.64,0.04268
7427.49,0.03211
7404.35,0.04352
7381.2,0.03707
7358.06,0.03239
7334.91,0.04611
7311.77,0.03396
7288.62,0.03335
7265.48,0.04102
7242.34,0.03779
7219.19,0.03470
7196.05,0.03610
7172.9,0.04295
7149.76,0.04016
7126.61,0.02413
7103.47,0.02012
7080.32,0.02934
7057.18,0.02633
7034.03,0.03134
7010.89,0.03579
6987.74,0.02679
6964.6,0.02654
6941.46,0.04231
6918.31,0.02635
6895.17,0.02970
6872.02,0.03062
6848.88,0.03081
6825.73,0.03246
6802.59,0.03798
6779.44,0.03512
6756.3,0.02988
6733.15,0.03211
6710.01,0.03177
6686.86,0.03268
6663.72,0.03579
6640.58,0.03824
6617.43,0.03643
6594.29,0.02754
6571.14,0.03015
6548,0.02625
6524.85,0.03050
6501.71,0.02522
6478.56,0.03609
6455.42,0.02804
6432.27,0.02746
6409.13,0.03110
6385.98,0.02745
6362.84,0.02802
6339.7,0.02881
6316.55,0.03325
6293.41,0.02466
6270.26,0.03336
6247.12,0.02746
6223.97,0.02683
6200.83,0.03135
6177.68,0.02937
6154.54,0.03098
6131.39,0.02774
6108.25,0.03160
6085.1,0.02982
6061.96,0.03252
6038.82,0.02703
6015.67,0.02513
5992.53,0.02801
5969.38,0.03136
5946.24,0.03104
5923.09,0.02950
5899.95,0.02754
5876.8,0.02789
5853.66,0.02819
5830.51,0.02866
5807.37,0.03083
5784.22,0.02832
5761.08,0.03189
5737.94,0.03047
5714.79,0.03129
5691.65,0.02927
5668.5,0.03072
5645.36,0.02967
5622.21,0.03054
5599.07,0.03190
5575.92,0.02938
5552.78,0.02972
5529.63,0.03043
5506.49,0.02736
5483.34,0.02940
5460.2,0.02739
5437.06,0.02832
5413.91,0.02882
5390.77,0.03175
5367.62,0.02981
5344.48,0.03135
5321.33,0.02825
5298.19,0.02888
5275.04,0.02881
5251.9,0.02963
5228.75,0.03123
5205.61,0.03146
5182.46,0.03054
5159.32,0.03054
5136.18,0.02953
5113.03,0.02890
5089.89,0.02887
5066.74,0.02978
5043.6,0.02999
5020.45,0.03035
4997.31,0.02953
4974.16,0.02913
4951.02,0.02955
4927.87,0.03036
4904.73,0.03030
4881.58,0.02962
4858.44,0.02937
4835.3,0.02997
4812.15,0.03070
4789.01,0.02931
4765.86,0.03026
4742.72,0.03112
4719.57,0.03039
4696.43,0.02949
4673.28,0.02977
4650.14,0.02841
4626.99,0.03105
4603.85,0.03059
4580.7,0.03077
4557.56,0.03073
4534.42,0.02962
4511.27,0.03065
4488.13,0.02992
4464.98,0.03066
4441.84,0.02976
4418.69,0.02934
4395.55,0.02983
4372.4,0.02973
4349.26,0.02986
4326.11,0.03048
4302.97,0.03034
4279.82,0.02943
4256.68,0.03009
4233.54,0.02970
4210.39,0.02989
4187.25,0.02950
4164.1,0.03059
4140.96,0.03071
4117.81,0.03023
4094.67,0.03028
4071.52,0.02928
4048.38,0.02990
4025.23,0.03026
4002.09,0.02987
3978.94,0.03005
3955.8,0.03007
3932.66,0.02944
3909.51,0.03003
3886.37,0.03030
3863.22,0.02947
3840.08,0.03008
3816.93,0.03102
3793.79,0.02949
3770.64,0.02937
3747.5,0.03148
3724.35,0.03011
3701.21,0.02953
3678.06,0.02933
3654.92,0.02939
3631.78,0.02872
3608.63,0.02853
3585.49,0.02679
3562.34,0.02703
3539.2,0.02804
3516.05,0.02673
3492.91,0.02694
3469.76,0.02592
3446.62,0.02666
3423.47,0.02590
3400.33,0.02599
3377.18,0.02588
3354.04,0.02684
3330.9,0.02656
3307.75,0.02675
3284.61,0.02677
3261.46,0.02625
3238.32,0.02691
3215.17,0.02696
3192.03,0.02630
3168.88,0.02824
3145.74,0.02701
3122.59,0.02702
3099.45,0.02737
3076.3,0.02692
3053.16,0.02706
3030.02,0.02657
3006.87,0.02646
2983.73,0.02586
2960.58,0.02541
2937.44,0.02617
2914.29,0.02650
2891.15,0.02691
2868,0.02672
2844.86,0.02736
2821.71,0.02738
2798.57,0.02743
2775.42,0.02760
2752.28,0.02738
2729.14,0.02737
2705.99,0.02770
2682.85,0.02704
2659.7,0.02730
2636.56,0.02728
2613.41,0.02661
2590.27,0.02702
2567.12,0.02740
2543.98,0.02720
2520.83,0.02672
2497.69,0.02693
2474.55,0.02715
2451.4,0.02721
2428.26,0.02731
2405.11,0.02661
2381.97,0.02690
2358.82,0.02754
2335.68,0.02695
2312.53,0.02683
2289.39,0.02665
2266.24,0.02670
2243.1,0.02663
2219.95,0.02605
2196.81,0.02626
2173.67,0.02590
2150.52,0.02651
2127.38,0.02637
2104.23,0.02611
2081.09,0.02559
2057.94,0.02613
2034.8,0.02611
2011.65,0.02595
1988.51,0.02599
1965.36,0.02579
1942.22,0.02621
1919.07,0.02588
1895.93,0.02568
1872.79,0.02528
1849.64,0.02531
1826.5,0.02499
1803.35,0.02480
1780.21,0.02356
1757.06,0.02172
1733.92,0.02315
1710.77,0.02461
1687.63,0.02299
1664.48,0.02240
1641.34,0.02225
1618.19,0.02296
1595.05,0.02269
1571.91,0.02169
1548.76,0.02188
1525.62,0.02307
1502.47,0.02223
1479.33,0.02176
1456.18,0.02181
1433.04,0.02194
1409.89,0.02110
1386.75,0.02108
1363.6,0.02081
1340.46,0.02082
1317.31,0.01969
1294.17,0.02056
1271.03,0.02160
1247.88,0.02238
1224.74,0.02201
1201.59,0.02110
1178.45,0.02085
1155.3,0.01955
1132.16,0.02075
1109.01,0.02178
1085.87,0.02207
1062.72,0.02411
1039.58,0.02277
1016.43,0.02204
993.29,0.02518
970.145,0.02401
947,0.02391
923.856,0.02297
900.711,0.02192
877.567,0.02192
854.422,0.02249
831.277,0.02149
808.133,0.02109
784.988,0.02049
761.844,0.01981
738.699,0.01979
715.554,0.01958
692.41,0.01753
669.265,0.01973
646.12,0.01873
622.976,0.01846
599.831,0.01921