File: 01_Data/PEVA/FTIR/IS/PEVA_0.18_IS_Trans_S_240819_R11.dpt
7496.91,0.93683
7473.76,0.92358
7450.62,0.92998
7427.47,0.93316
7404.33,0.94542
7381.18,0.93916
7358.04,0.95178
7334.89,0.92809
7311.75,0.93457
7288.61,0.92945
7265.46,0.93231
7242.32,0.92198
7219.17,0.92160
7196.03,0.92606
7172.88,0.93135
7149.74,0.91825
7126.59,0.94042
7103.45,0.92688
7080.3,0.92830
7057.16,0.91935
7034.02,0.92686
7010.87,0.92723
6987.73,0.93179
6964.58,0.93452
6941.44,0.92690
6918.29,0.93639
6895.15,0.93245
6872,0.93366
6848.86,0.93271
6825.71,0.93549
6802.57,0.94863
6779.43,0.93829
6756.28,0.94297
6733.14,0.93543
6709.99,0.94480
6686.85,0.93445
6663.7,0.94579
6640.56,0.94561
6617.41,0.94214
6594.27,0.95015
6571.12,0.93926
6547.98,0.94450
6524.84,0.94027
6501.69,0.94103
6478.55,0.94579
6455.4,0.94337
6432.26,0.94645
6409.11,0.94106
6385.97,0.94591
6362.82,0.94305
6339.68,0.94262
6316.53,0.94720
6293.39,0.94002
6270.24,0.94719
6247.1,0.94447
6223.96,0.94791
6200.81,0.93889
6177.67,0.94137
6154.52,0.94493
6131.38,0.93784
6108.23,0.93881
6085.09,0.93912
6061.94,0.93401
6038.8,0.93482
6015.65,0.92659
5992.51,0.92459
5969.37,0.92310
5946.22,0.91589
5923.08,0.91869
5899.93,0.91325
5876.79,0.89588
5853.64,0.86544
5830.5,0.82696
5807.35,0.79391
5784.21,0.74008
5761.06,0.78617
5737.92,0.85126
5714.78,0.86419
5691.63,0.84677
5668.49,0.81804
5645.34,0.85690
5622.2,0.87214
5599.05,0.88367
5575.91,0.88280
5552.76,0.87885
5529.62,0.88060
5506.47,0.88125
5483.33,0.88657
5460.19,0.88269
5437.04,0.88605
5413.9,0.88371
5390.75,0.89747
5367.61,0.90424
5344.46,0.89301
5321.32,0.90837
5298.17,0.90917
5275.03,0.91040
5251.88,0.90329
5228.74,0.90362
5205.6,0.89941
5182.45,0.90819
5159.31,0.90908
5136.16,0.91185
5113.02,0.91206
5089.87,0.91297
5066.73,0.91521
5043.58,0.91357
5020.44,0.91432
4997.29,0.91295
4974.15,0.91186
4951.01,0.91358
4927.86,0.91747
4904.72,0.91700
4881.57,0.91506
4858.43,0.91650
4835.28,0.91689
4812.14,0.91957
4788.99,0.92010
4765.85,0.91810
4742.7,0.91863
4719.56,0.91822
4696.42,0.91400
4673.27,0.90657
4650.13,0.91712
4626.98,0.92086
4603.84,0.91959
4580.69,0.91883
4557.55,0.91745
4534.4,0.91263
4511.26,0.90748
4488.11,0.89598
4464.97,0.87901
4441.83,0.84410
4418.68,0.81498
4395.54,0.75979
4372.39,0.67726
4349.25,0.51726
4326.1,0.28371
4302.96,0.60274
4279.81,0.58189
4256.67,0.39096
4233.52,0.53857
4210.38,0.50977
4187.24,0.45637
4164.09,0.47136
4140.95,0.48830
4117.8,0.50568
4094.66,0.51624
4071.51,0.59007
4048.37,0.62169
4025.22,0.64071
4002.08,0.69726
3978.93,0.69151
3955.79,0.71004
3932.65,0.70055
3909.5,0.70468
3886.36,0.70349
3863.21,0.71289
3840.07,0.71341
3816.92,0.72143
3793.78,0.76000
3770.63,0.76648
3747.49,0.75261
3724.34,0.76468
3701.2,0.76177
3678.06,0.73606
3654.91,0.71722
3631.77,0.72018
3608.62,0.67295
3585.48,0.78328
3562.33,0.80800
3539.19,0.82638
3516.04,0.83142
3492.9,0.82396
3469.75,0.73275
3446.61,0.70184
3423.47,0.80308
3400.32,0.81468
3377.18,0.80355
3354.03,0.81397
3330.89,0.82642
3307.74,0.82955
3284.6,0.82704
3261.45,0.82301
3238.31,0.81446
3215.16,0.79888
3192.02,0.77528
3168.87,0.75317
3145.73,0.72852
3122.59,0.68771
3099.44,0.59280
3076.3,0.46575
3053.15,0.36934
3030.01,0.23394
3006.86,0.14320
2983.72,0.03367
2960.57,0.00038
2937.43,0.00021
2914.28,0.00036
2891.14,0.00051
2868,0.00026
2844.85,0.00024
2821.71,0.00826
2798.56,0.08114
2775.42,0.21392
2752.27,0.27651
2729.13,0.29699
2705.98,0.34930
2682.84,0.31969
2659.69,0.32588
2636.55,0.34952
2613.41,0.43851
2590.26,0.52407
2567.12,0.61173
2543.97,0.66110
2520.83,0.68472
2497.68,0.71115
2474.54,0.69722
2451.39,0.75474
2428.25,0.76438
2405.1,0.75252
2381.96,0.74779
2358.82,0.66210
2335.67,0.62886
2312.53,0.67173
2289.38,0.72880
2266.24,0.75480
2243.09,0.77401
2219.95,0.80295
2196.8,0.78733
2173.66,0.75807
2150.51,0.74846
2127.37,0.79486
2104.23,0.80769
2081.08,0.80271
2057.94,0.78183
2034.79,0.73754
2011.65,0.73914
1988.5,0.80459
1965.36,0.80176
1942.21,0.78792
1919.07,0.77040
1895.92,0.71780
1872.78,0.71295
1849.64,0.70822
1826.49,0.64746
1803.35,0.55890
1780.2,0.39312
1757.06,0.05145
1733.91,0.00091
1710.77,0.15451
1687.62,0.35343
1664.48,0.53661
1641.33,0.56224
1618.19,0.65395
1595.05,0.66355
1571.9,0.62989
1548.76,0.59243
1525.61,0.52966
1502.47,0.44176
1479.32,0.11235
1456.18,0.00061
1433.03,0.02383
1409.89,0.27117
1386.74,0.07790
1363.6,0.00250
1340.46,0.22326
1317.31,0.24784
1294.17,0.12794
1271.02,0.01585
1247.88,0.00040
1224.73,0.00043
1201.59,0.09112
1178.44,0.20949
1155.3,0.18099
1132.15,0.12356
1109.01,0.15886
1085.87,0.12739
1062.72,0.07694
1039.58,0.02509
1016.43,0.00212
993.287,0.21023
970.142,0.18578
946.998,0.17480
923.853,0.39074
900.709,0.49083
877.564,0.50843
854.42,0.53820
831.275,0.61001
808.131,0.59500
784.986,0.63363
761.842,0.57275
738.697,0.31380
715.552,0.05089
692.408,0.71834
669.263,0.73221
646.119,0.58407
622.974,0.55296
599.83,0.52670