File: 01_Data/PEVA/FTIR/IS/PEVA_0.26_IS_T_240809_R9.dpt
7497.2,0.03240
7474.05,0.03552
7450.91,0.03288
7427.76,0.02292
7404.62,0.03689
7381.47,0.03936
7358.33,0.02522
7335.18,0.02927
7312.04,0.02756
7288.89,0.03310
7265.75,0.04655
7242.6,0.03074
7219.45,0.02857
7196.31,0.02863
7173.16,0.03387
7150.02,0.02694
7126.87,0.03644
7103.73,0.03187
7080.58,0.03691
7057.44,0.03271
7034.29,0.03315
7011.15,0.04264
6988,0.03257
6964.85,0.03234
6941.71,0.03174
6918.56,0.03105
6895.42,0.03931
6872.27,0.03528
6849.13,0.03109
6825.98,0.03810
6802.84,0.03523
6779.69,0.02932
6756.55,0.02933
6733.4,0.03183
6710.25,0.03544
6687.11,0.03864
6663.96,0.03611
6640.82,0.03354
6617.67,0.03157
6594.53,0.02999
6571.38,0.03301
6548.24,0.02956
6525.09,0.02952
6501.95,0.03008
6478.8,0.03452
6455.65,0.02450
6432.51,0.03486
6409.36,0.03740
6386.22,0.03057
6363.07,0.03161
6339.93,0.03131
6316.78,0.02873
6293.64,0.03121
6270.49,0.03134
6247.34,0.03390
6224.2,0.03185
6201.05,0.03306
6177.91,0.02888
6154.76,0.02921
6131.62,0.03189
6108.47,0.02846
6085.33,0.03043
6062.18,0.03051
6039.04,0.03198
6015.89,0.03002
5992.74,0.02844
5969.6,0.02924
5946.45,0.03128
5923.31,0.03145
5900.16,0.03217
5877.02,0.03002
5853.87,0.02948
5830.73,0.03123
5807.58,0.03247
5784.44,0.03028
5761.29,0.02856
5738.14,0.03036
5715,0.03024
5691.85,0.02922
5668.71,0.03140
5645.56,0.03022
5622.42,0.03117
5599.27,0.03259
5576.13,0.03063
5552.98,0.03066
5529.84,0.02935
5506.69,0.03148
5483.54,0.03154
5460.4,0.02992
5437.25,0.02840
5414.11,0.02914
5390.96,0.02905
5367.82,0.03003
5344.67,0.03245
5321.53,0.03156
5298.38,0.03070
5275.24,0.03105
5252.09,0.03060
5228.94,0.03216
5205.8,0.03113
5182.65,0.03210
5159.51,0.03051
5136.36,0.03075
5113.22,0.03043
5090.07,0.02976
5066.93,0.02974
5043.78,0.03198
5020.64,0.02969
4997.49,0.03066
4974.34,0.02979
4951.2,0.02933
4928.05,0.03103
4904.91,0.02979
4881.76,0.03052
4858.62,0.02940
4835.47,0.03010
4812.33,0.03042
4789.18,0.03037
4766.04,0.02996
4742.89,0.03029
4719.74,0.02990
4696.6,0.03020
4673.45,0.03076
4650.31,0.03056
4627.16,0.02947
4604.02,0.03026
4580.87,0.03078
4557.73,0.03018
4534.58,0.02949
4511.44,0.03109
4488.29,0.02951
4465.14,0.02963
4442,0.03043
4418.85,0.02939
4395.71,0.03022
4372.56,0.02997
4349.42,0.02997
4326.27,0.02997
4303.13,0.03025
4279.98,0.02988
4256.84,0.03039
4233.69,0.02981
4210.54,0.03031
4187.4,0.03015
4164.25,0.02936
4141.11,0.03055
4117.96,0.02979
4094.82,0.03019
4071.67,0.02983
4048.53,0.02989
4025.38,0.02928
4002.24,0.03014
3979.09,0.02952
3955.94,0.02989
3932.8,0.02971
3909.65,0.03026
3886.51,0.03042
3863.36,0.03043
3840.22,0.03058
3817.07,0.03043
3793.93,0.02998
3770.78,0.02965
3747.64,0.03005
3724.49,0.03005
3701.34,0.02933
3678.2,0.02833
3655.05,0.02899
3631.91,0.02844
3608.76,0.02747
3585.62,0.02743
3562.47,0.02662
3539.33,0.02678
3516.18,0.02611
3493.04,0.02661
3469.89,0.02708
3446.74,0.02634
3423.6,0.02714
3400.45,0.02609
3377.31,0.02555
3354.16,0.02599
3331.02,0.02654
3307.87,0.02619
3284.73,0.02631
3261.58,0.02691
3238.44,0.02581
3215.29,0.02668
3192.14,0.02635
3169,0.02650
3145.85,0.02616
3122.71,0.02621
3099.56,0.02689
3076.42,0.02623
3053.27,0.02672
3030.13,0.02738
3006.98,0.02615
2983.84,0.02560
2960.69,0.02581
2937.54,0.02575
2914.4,0.02577
2891.25,0.02586
2868.11,0.02595
2844.96,0.02677
2821.82,0.02734
2798.67,0.02714
2775.53,0.02736
2752.38,0.02764
2729.24,0.02726
2706.09,0.02696
2682.94,0.02751
2659.8,0.02718
2636.65,0.02692
2613.51,0.02738
2590.36,0.02718
2567.22,0.02711
2544.07,0.02699
2520.93,0.02667
2497.78,0.02718
2474.64,0.02700
2451.49,0.02680
2428.34,0.02656
2405.2,0.02664
2382.05,0.02676
2358.91,0.02743
2335.76,0.02733
2312.62,0.02645
2289.47,0.02635
2266.33,0.02625
2243.18,0.02629
2220.04,0.02631
2196.89,0.02610
2173.74,0.02604
2150.6,0.02593
2127.45,0.02586
2104.31,0.02574
2081.16,0.02616
2058.02,0.02543
2034.87,0.02532
2011.73,0.02547
1988.58,0.02570
1965.44,0.02552
1942.29,0.02535
1919.14,0.02517
1896,0.02520
1872.85,0.02492
1849.71,0.02480
1826.56,0.02438
1803.42,0.02401
1780.27,0.02319
1757.13,0.02199
1733.98,0.02377
1710.84,0.02409
1687.69,0.02250
1664.54,0.02173
1641.4,0.02208
1618.25,0.02203
1595.11,0.02222
1571.96,0.02184
1548.82,0.02144
1525.67,0.02193
1502.53,0.02171
1479.38,0.02158
1456.24,0.02192
1433.09,0.02174
1409.94,0.02118
1386.8,0.02090
1363.65,0.02092
1340.51,0.02045
1317.36,0.01930
1294.22,0.02043
1271.07,0.02164
1247.93,0.02301
1224.78,0.02170
1201.64,0.02113
1178.49,0.02051
1155.34,0.01992
1132.2,0.01996
1109.05,0.02195
1085.91,0.02173
1062.76,0.02401
1039.62,0.02313
1016.47,0.02288
993.326,0.02407
970.18,0.02442
947.035,0.02308
923.89,0.02241
900.744,0.02313
877.599,0.02258
854.453,0.02240
831.308,0.02176
808.162,0.02148
785.017,0.02097
761.871,0.02060
738.726,0.02026
715.58,0.01921
692.435,0.01965
669.29,0.01897
646.144,0.01884
622.999,0.01954
599.853,0.01756