File: 01_Data/PEVA/FTIR/IS/PEVA_0.26_IS_T_240809_R2.dpt
7497.2,0.04274
7474.05,0.03139
7450.91,0.03258
7427.76,0.03016
7404.62,0.02420
7381.47,0.02860
7358.33,0.03982
7335.18,0.04523
7312.04,0.03453
7288.89,0.03965
7265.75,0.02882
7242.6,0.03116
7219.45,0.02430
7196.31,0.04018
7173.16,0.03110
7150.02,0.03148
7126.87,0.02694
7103.73,0.03896
7080.58,0.03118
7057.44,0.03343
7034.29,0.03044
7011.15,0.03577
6988,0.03281
6964.85,0.02865
6941.71,0.03034
6918.56,0.03352
6895.42,0.02741
6872.27,0.03487
6849.13,0.03153
6825.98,0.03033
6802.84,0.02956
6779.69,0.02865
6756.55,0.03413
6733.4,0.03220
6710.25,0.03430
6687.11,0.02698
6663.96,0.03545
6640.82,0.03091
6617.67,0.03191
6594.53,0.03504
6571.38,0.03584
6548.24,0.03266
6525.09,0.03268
6501.95,0.03292
6478.8,0.03125
6455.65,0.02967
6432.51,0.03221
6409.36,0.02902
6386.22,0.03278
6363.07,0.03233
6339.93,0.03387
6316.78,0.02793
6293.64,0.03205
6270.49,0.03118
6247.34,0.02935
6224.2,0.03446
6201.05,0.03305
6177.91,0.03001
6154.76,0.03311
6131.62,0.02947
6108.47,0.02996
6085.33,0.03026
6062.18,0.03158
6039.04,0.02816
6015.89,0.02827
5992.74,0.03015
5969.6,0.03022
5946.45,0.03132
5923.31,0.02809
5900.16,0.02860
5877.02,0.03144
5853.87,0.03003
5830.73,0.02893
5807.58,0.02986
5784.44,0.03010
5761.29,0.03061
5738.14,0.03310
5715,0.03100
5691.85,0.03069
5668.71,0.02905
5645.56,0.02922
5622.42,0.03072
5599.27,0.03121
5576.13,0.03035
5552.98,0.03002
5529.84,0.03062
5506.69,0.03134
5483.54,0.03240
5460.4,0.03201
5437.25,0.03028
5414.11,0.03111
5390.96,0.03168
5367.82,0.03317
5344.67,0.03188
5321.53,0.03116
5298.38,0.03037
5275.24,0.03000
5252.09,0.03065
5228.94,0.03123
5205.8,0.03011
5182.65,0.03149
5159.51,0.03062
5136.36,0.03190
5113.22,0.03058
5090.07,0.03080
5066.93,0.03025
5043.78,0.03158
5020.64,0.03122
4997.49,0.03005
4974.34,0.03046
4951.2,0.02965
4928.05,0.03115
4904.91,0.03010
4881.76,0.03114
4858.62,0.03070
4835.47,0.03022
4812.33,0.03051
4789.18,0.03052
4766.04,0.02970
4742.89,0.03148
4719.74,0.03072
4696.6,0.03138
4673.45,0.03096
4650.31,0.03024
4627.16,0.03125
4604.02,0.03053
4580.87,0.03056
4557.73,0.03065
4534.58,0.03161
4511.44,0.03088
4488.29,0.03068
4465.14,0.03105
4442,0.03008
4418.85,0.02952
4395.71,0.03089
4372.56,0.02946
4349.42,0.03026
4326.27,0.03058
4303.13,0.03109
4279.98,0.03034
4256.84,0.03035
4233.69,0.03038
4210.54,0.03029
4187.4,0.03107
4164.25,0.03025
4141.11,0.02956
4117.96,0.02997
4094.82,0.03065
4071.67,0.03049
4048.53,0.03036
4025.38,0.03063
4002.24,0.03093
3979.09,0.03097
3955.94,0.03056
3932.8,0.03028
3909.65,0.02981
3886.51,0.03055
3863.36,0.03015
3840.22,0.03005
3817.07,0.03024
3793.93,0.03024
3770.78,0.03084
3747.64,0.03099
3724.49,0.02976
3701.34,0.02906
3678.2,0.02948
3655.05,0.02919
3631.91,0.03006
3608.76,0.02844
3585.62,0.02844
3562.47,0.02753
3539.33,0.02674
3516.18,0.02615
3493.04,0.02749
3469.89,0.02718
3446.74,0.02642
3423.6,0.02659
3400.45,0.02673
3377.31,0.02722
3354.16,0.02661
3331.02,0.02629
3307.87,0.02619
3284.73,0.02615
3261.58,0.02645
3238.44,0.02749
3215.29,0.02716
3192.14,0.02787
3169,0.02739
3145.85,0.02704
3122.71,0.02733
3099.56,0.02656
3076.42,0.02714
3053.27,0.02718
3030.13,0.02755
3006.98,0.02704
2983.84,0.02631
2960.69,0.02616
2937.54,0.02588
2914.4,0.02696
2891.25,0.02642
2868.11,0.02661
2844.96,0.02718
2821.82,0.02784
2798.67,0.02782
2775.53,0.02765
2752.38,0.02748
2729.24,0.02744
2706.09,0.02730
2682.94,0.02728
2659.8,0.02741
2636.65,0.02717
2613.51,0.02741
2590.36,0.02731
2567.22,0.02731
2544.07,0.02695
2520.93,0.02674
2497.78,0.02728
2474.64,0.02694
2451.49,0.02722
2428.34,0.02695
2405.2,0.02739
2382.05,0.02683
2358.91,0.02803
2335.76,0.02727
2312.62,0.02639
2289.47,0.02665
2266.33,0.02692
2243.18,0.02672
2220.04,0.02672
2196.89,0.02632
2173.74,0.02655
2150.6,0.02638
2127.45,0.02635
2104.31,0.02594
2081.16,0.02583
2058.02,0.02617
2034.87,0.02609
2011.73,0.02600
1988.58,0.02574
1965.44,0.02553
1942.29,0.02596
1919.14,0.02559
1896,0.02518
1872.85,0.02523
1849.71,0.02521
1826.56,0.02509
1803.42,0.02458
1780.27,0.02334
1757.13,0.02175
1733.98,0.02436
1710.84,0.02403
1687.69,0.02315
1664.54,0.02214
1641.4,0.02192
1618.25,0.02302
1595.11,0.02240
1571.96,0.02184
1548.82,0.02243
1525.67,0.02311
1502.53,0.02222
1479.38,0.02197
1456.24,0.02199
1433.09,0.02135
1409.94,0.02117
1386.8,0.02111
1363.65,0.02090
1340.51,0.02104
1317.36,0.02012
1294.22,0.02064
1271.07,0.02209
1247.93,0.02270
1224.78,0.02238
1201.64,0.02135
1178.49,0.02113
1155.34,0.02048
1132.2,0.02066
1109.05,0.02286
1085.91,0.02216
1062.76,0.02435
1039.62,0.02373
1016.47,0.02319
993.326,0.02443
970.18,0.02436
947.035,0.02388
923.89,0.02168
900.744,0.02207
877.599,0.02271
854.453,0.02244
831.308,0.02209
808.162,0.02149
785.017,0.02208
761.871,0.02121
738.726,0.02107
715.58,0.02004
692.435,0.01868
669.29,0.01769
646.144,0.01956
622.999,0.01815
599.853,0.01985