File: 01_Data/PEVA/FTIR/IS/PEVA_0.26_IS_S_240809_R9.dpt
7497.2,0.10694
7474.05,0.10339
7450.91,0.12265
7427.76,0.10080
7404.62,0.10775
7381.47,0.10818
7358.33,0.09840
7335.18,0.09976
7312.04,0.09643
7288.89,0.10941
7265.75,0.10562
7242.6,0.09588
7219.45,0.09811
7196.31,0.09891
7173.16,0.10057
7150.02,0.10277
7126.87,0.10273
7103.73,0.09320
7080.58,0.09777
7057.44,0.09868
7034.29,0.10191
7011.15,0.09660
6988,0.10377
6964.85,0.10644
6941.71,0.10532
6918.56,0.10489
6895.42,0.10338
6872.27,0.10150
6849.13,0.09893
6825.98,0.10376
6802.84,0.10469
6779.69,0.10291
6756.55,0.10197
6733.4,0.10070
6710.25,0.09840
6687.11,0.10669
6663.96,0.10257
6640.82,0.10442
6617.67,0.09787
6594.53,0.10049
6571.38,0.10377
6548.24,0.10208
6525.09,0.10182
6501.95,0.10249
6478.8,0.10557
6455.65,0.10447
6432.51,0.10622
6409.36,0.10461
6386.22,0.10166
6363.07,0.09909
6339.93,0.10712
6316.78,0.10124
6293.64,0.10260
6270.49,0.10880
6247.34,0.10233
6224.2,0.10157
6201.05,0.10295
6177.91,0.10074
6154.76,0.10657
6131.62,0.10549
6108.47,0.10343
6085.33,0.10291
6062.18,0.10389
6039.04,0.09939
6015.89,0.09949
5992.74,0.09896
5969.6,0.10317
5946.45,0.10074
5923.31,0.09517
5900.16,0.09539
5877.02,0.09106
5853.87,0.09057
5830.73,0.08791
5807.58,0.08843
5784.44,0.09196
5761.29,0.09473
5738.14,0.09337
5715,0.09814
5691.85,0.09309
5668.71,0.09594
5645.56,0.09892
5622.42,0.09710
5599.27,0.09875
5576.13,0.10023
5552.98,0.09687
5529.84,0.10142
5506.69,0.10075
5483.54,0.09960
5460.4,0.10193
5437.25,0.10097
5414.11,0.10367
5390.96,0.10145
5367.82,0.10190
5344.67,0.10042
5321.53,0.10168
5298.38,0.10263
5275.24,0.10303
5252.09,0.10157
5228.94,0.10133
5205.8,0.10381
5182.65,0.10328
5159.51,0.10257
5136.36,0.10533
5113.22,0.10269
5090.07,0.10322
5066.93,0.10297
5043.78,0.10475
5020.64,0.10418
4997.49,0.10389
4974.34,0.10436
4951.2,0.10467
4928.05,0.10409
4904.91,0.10419
4881.76,0.10391
4858.62,0.10365
4835.47,0.10344
4812.33,0.10325
4789.18,0.10343
4766.04,0.10451
4742.89,0.10415
4719.74,0.10239
4696.6,0.10185
4673.45,0.10179
4650.31,0.10188
4627.16,0.10117
4604.02,0.10254
4580.87,0.10293
4557.73,0.10353
4534.58,0.10361
4511.44,0.10231
4488.29,0.10125
4465.14,0.09897
4442,0.09456
4418.85,0.08688
4395.71,0.08263
4372.56,0.07719
4349.42,0.07093
4326.27,0.06908
4303.13,0.07466
4279.98,0.07414
4256.84,0.07518
4233.69,0.07372
4210.54,0.07432
4187.4,0.07594
4164.25,0.07575
4141.11,0.07849
4117.96,0.08007
4094.82,0.07831
4071.67,0.07837
4048.53,0.08230
4025.38,0.08402
4002.24,0.08439
3979.09,0.08785
3955.94,0.08847
3932.8,0.08891
3909.65,0.08947
3886.51,0.08944
3863.36,0.08930
3840.22,0.09020
3817.07,0.09123
3793.93,0.09279
3770.78,0.09368
3747.64,0.09314
3724.49,0.09488
3701.34,0.09219
3678.2,0.08598
3655.05,0.08647
3631.91,0.08760
3608.76,0.08419
3585.62,0.08185
3562.47,0.07912
3539.33,0.07730
3516.18,0.07605
3493.04,0.07366
3469.89,0.07110
3446.74,0.06856
3423.6,0.06576
3400.45,0.06764
3377.31,0.07240
3354.16,0.07402
3331.02,0.07264
3307.87,0.06732
3284.73,0.07014
3261.58,0.07634
3238.44,0.07736
3215.29,0.07603
3192.14,0.07516
3169,0.07594
3145.85,0.07589
3122.71,0.07262
3099.56,0.06915
3076.42,0.06613
3053.27,0.06387
3030.13,0.06255
3006.98,0.05936
2983.84,0.05751
2960.69,0.05958
2937.54,0.05964
2914.4,0.06291
2891.25,0.06290
2868.11,0.06316
2844.96,0.06440
2821.82,0.06316
2798.67,0.06492
2775.53,0.06948
2752.38,0.06976
2729.24,0.06833
2706.09,0.07245
2682.94,0.07304
2659.8,0.07462
2636.65,0.07546
2613.51,0.07454
2590.36,0.07443
2567.22,0.07427
2544.07,0.07552
2520.93,0.07740
2497.78,0.07949
2474.64,0.08145
2451.49,0.08137
2428.34,0.07938
2405.2,0.07728
2382.05,0.07489
2358.91,0.07781
2335.76,0.08158
2312.62,0.08353
2289.47,0.08159
2266.33,0.08089
2243.18,0.08134
2220.04,0.08210
2196.89,0.08428
2173.74,0.08615
2150.6,0.08554
2127.45,0.08416
2104.31,0.08384
2081.16,0.08295
2058.02,0.08347
2034.87,0.08440
2011.73,0.08513
1988.58,0.08270
1965.44,0.07924
1942.29,0.07399
1919.14,0.08082
1896,0.08128
1872.85,0.08108
1849.71,0.07661
1826.56,0.06715
1803.42,0.06705
1780.27,0.06171
1757.13,0.05579
1733.98,0.05014
1710.84,0.07100
1687.69,0.06231
1664.54,0.06207
1641.4,0.06130
1618.25,0.06382
1595.11,0.06538
1571.96,0.05986
1548.82,0.06104
1525.67,0.06057
1502.53,0.05708
1479.38,0.05568
1456.24,0.05717
1433.09,0.05659
1409.94,0.05708
1386.8,0.05529
1363.65,0.05557
1340.51,0.05268
1317.36,0.05320
1294.22,0.04870
1271.07,0.06653
1247.93,0.07365
1224.78,0.06920
1201.64,0.06394
1178.49,0.06161
1155.34,0.05898
1132.2,0.05424
1109.05,0.06544
1085.91,0.06760
1062.76,0.06545
1039.62,0.06344
1016.47,0.06650
993.326,0.06151
970.18,0.06252
947.035,0.06499
923.89,0.06393
900.744,0.06332
877.599,0.06244
854.453,0.06324
831.308,0.06257
808.162,0.06387
785.017,0.06003
761.871,0.06045
738.726,0.05214
715.58,0.06131
692.435,0.06025
669.29,0.06097
646.144,0.05731
622.999,0.06163
599.853,0.06587