File: 01_Data/PEVA/FTIR/IS/PEVA_0.10_IS_S_240808_R3.dpt
7496.93,0.08275
7473.78,0.09556
7450.64,0.08853
7427.49,0.11650
7404.35,0.10804
7381.2,0.10181
7358.06,0.10488
7334.91,0.10894
7311.77,0.10016
7288.62,0.10630
7265.48,0.08542
7242.34,0.09902
7219.19,0.10877
7196.05,0.10129
7172.9,0.09516
7149.76,0.10390
7126.61,0.10058
7103.47,0.09989
7080.32,0.09464
7057.18,0.09833
7034.03,0.10039
7010.89,0.09395
6987.74,0.10042
6964.6,0.10277
6941.46,0.10155
6918.31,0.09680
6895.17,0.09797
6872.02,0.10280
6848.88,0.09440
6825.73,0.10150
6802.59,0.09904
6779.44,0.08993
6756.3,0.09808
6733.15,0.10109
6710.01,0.09381
6686.86,0.09843
6663.72,0.09586
6640.58,0.09697
6617.43,0.10049
6594.29,0.09442
6571.14,0.09831
6548,0.10108
6524.85,0.10137
6501.71,0.09918
6478.56,0.09288
6455.42,0.09515
6432.27,0.09785
6409.13,0.10144
6385.98,0.09595
6362.84,0.10075
6339.7,0.09824
6316.55,0.09953
6293.41,0.09967
6270.26,0.09643
6247.12,0.10019
6223.97,0.09642
6200.83,0.10250
6177.68,0.09839
6154.54,0.09653
6131.39,0.09964
6108.25,0.09742
6085.1,0.09809
6061.96,0.09693
6038.82,0.09963
6015.67,0.09991
5992.53,0.09612
5969.38,0.09806
5946.24,0.09776
5923.09,0.10021
5899.95,0.09547
5876.8,0.09744
5853.66,0.09597
5830.51,0.09267
5807.37,0.09096
5784.22,0.08311
5761.08,0.08919
5737.94,0.09308
5714.79,0.09394
5691.65,0.09356
5668.5,0.09144
5645.36,0.09462
5622.21,0.09435
5599.07,0.09420
5575.92,0.09507
5552.78,0.09430
5529.63,0.09415
5506.49,0.09704
5483.34,0.09574
5460.2,0.09542
5437.06,0.09674
5413.91,0.09629
5390.77,0.09591
5367.62,0.09679
5344.48,0.09844
5321.33,0.09725
5298.19,0.09813
5275.04,0.09859
5251.9,0.09896
5228.75,0.09834
5205.61,0.09805
5182.46,0.09838
5159.32,0.09824
5136.18,0.09680
5113.03,0.09825
5089.89,0.09919
5066.74,0.09861
5043.6,0.09895
5020.45,0.09857
4997.31,0.09822
4974.16,0.10075
4951.02,0.10087
4927.87,0.09817
4904.73,0.10052
4881.58,0.10087
4858.44,0.09933
4835.3,0.09935
4812.15,0.10015
4789.01,0.09958
4765.86,0.10061
4742.72,0.10002
4719.57,0.09995
4696.43,0.10267
4673.28,0.10061
4650.14,0.10125
4626.99,0.10197
4603.85,0.09942
4580.7,0.10075
4557.56,0.10064
4534.42,0.09957
4511.27,0.09987
4488.13,0.09989
4464.98,0.09997
4441.84,0.09788
4418.69,0.09646
4395.55,0.09285
4372.4,0.08797
4349.26,0.08137
4326.11,0.06659
4302.97,0.08498
4279.82,0.08431
4256.68,0.07347
4233.54,0.08094
4210.39,0.08005
4187.25,0.07577
4164.1,0.07658
4140.96,0.07790
4117.81,0.07788
4094.67,0.07833
4071.52,0.08303
4048.38,0.08505
4025.23,0.08586
4002.09,0.09065
3978.94,0.08920
3955.8,0.09045
3932.66,0.08935
3909.51,0.08878
3886.37,0.08949
3863.22,0.09070
3840.08,0.09094
3816.93,0.09049
3793.79,0.09293
3770.64,0.09245
3747.5,0.09335
3724.35,0.09378
3701.21,0.09148
3678.06,0.09236
3654.92,0.09136
3631.78,0.09108
3608.63,0.08620
3585.49,0.09435
3562.34,0.09531
3539.2,0.09564
3516.05,0.09613
3492.91,0.09556
3469.76,0.09568
3446.62,0.09466
3423.47,0.09353
3400.33,0.09436
3377.18,0.09347
3354.04,0.09222
3330.9,0.09315
3307.75,0.09450
3284.61,0.09405
3261.46,0.09311
3238.32,0.09329
3215.17,0.09195
3192.03,0.09095
3168.88,0.08985
3145.74,0.08851
3122.59,0.08582
3099.45,0.07968
3076.3,0.07263
3053.16,0.06796
3030.02,0.06169
3006.87,0.05796
2983.73,0.05128
2960.58,0.04684
2937.44,0.03899
2914.29,0.08823
2891.15,0.06799
2868,0.05903
2844.86,0.08430
2821.71,0.06848
2798.57,0.06700
2775.42,0.07061
2752.28,0.07366
2729.14,0.07307
2705.99,0.07522
2682.85,0.07359
2659.7,0.07254
2636.56,0.07336
2613.41,0.07733
2590.27,0.08264
2567.12,0.08814
2543.98,0.09032
2520.83,0.09072
2497.69,0.09525
2474.55,0.09610
2451.4,0.09645
2428.26,0.09689
2405.11,0.09695
2381.97,0.09523
2358.82,0.09257
2335.68,0.09055
2312.53,0.09071
2289.39,0.09441
2266.24,0.09772
2243.1,0.09591
2219.95,0.09754
2196.81,0.09998
2173.67,0.09749
2150.52,0.09669
2127.38,0.10035
2104.23,0.09876
2081.09,0.09822
2057.94,0.09887
2034.8,0.09475
2011.65,0.09394
1988.51,0.10028
1965.36,0.09925
1942.22,0.09779
1919.07,0.09871
1895.93,0.09521
1872.79,0.09767
1849.64,0.10081
1826.5,0.09946
1803.35,0.09662
1780.21,0.09839
1757.06,0.09540
1733.92,0.09046
1710.77,0.09391
1687.63,0.09684
1664.48,0.09140
1641.34,0.09375
1618.19,0.09479
1595.05,0.08860
1571.91,0.09184
1548.76,0.09278
1525.62,0.08499
1502.47,0.07569
1479.33,0.05675
1456.18,0.06073
1433.04,0.06392
1409.89,0.07957
1386.75,0.07784
1363.6,0.06977
1340.46,0.07111
1317.31,0.07502
1294.17,0.08107
1271.03,0.07504
1247.88,0.08561
1224.74,0.09627
1201.59,0.08063
1178.45,0.08606
1155.3,0.09711
1132.16,0.07954
1109.01,0.09012
1085.87,0.09892
1062.72,0.07866
1039.58,0.09570
1016.43,0.10363
993.29,0.07927
970.145,0.10116
947,0.10629
923.856,0.07364
900.711,0.10544
877.567,0.10515
854.422,0.06916
831.277,0.10904
808.133,0.10353
784.988,0.06097
761.844,0.09409
738.699,0.08397
715.554,0.06719
692.41,0.11690
669.265,0.06199
646.12,0.09754
622.976,0.13791
599.831,0.06049