File: 01_Data/PEVA/FTIR/IS/PEVA_0.18_IS_Trans_S_240819_R6.dpt
7496.91,0.94349
7473.76,0.93916
7450.62,0.94544
7427.47,0.93760
7404.33,0.92751
7381.18,0.92967
7358.04,0.92960
7334.89,0.94186
7311.75,0.92731
7288.61,0.93584
7265.46,0.93167
7242.32,0.91759
7219.17,0.90057
7196.03,0.91148
7172.88,0.90323
7149.74,0.92123
7126.59,0.92485
7103.45,0.91190
7080.3,0.91735
7057.16,0.91435
7034.02,0.92443
7010.87,0.92111
6987.73,0.91797
6964.58,0.92586
6941.44,0.92228
6918.29,0.92403
6895.15,0.92502
6872,0.92121
6848.86,0.93854
6825.71,0.92592
6802.57,0.93475
6779.43,0.93131
6756.28,0.93022
6733.14,0.93052
6709.99,0.93719
6686.85,0.93767
6663.7,0.93087
6640.56,0.93918
6617.41,0.93577
6594.27,0.93109
6571.12,0.93769
6547.98,0.92940
6524.84,0.93367
6501.69,0.93010
6478.55,0.93812
6455.4,0.93239
6432.26,0.93606
6409.11,0.93214
6385.97,0.94254
6362.82,0.94058
6339.68,0.93738
6316.53,0.93575
6293.39,0.93835
6270.24,0.93804
6247.1,0.93553
6223.96,0.93642
6200.81,0.93389
6177.67,0.93139
6154.52,0.93278
6131.38,0.92935
6108.23,0.93220
6085.09,0.92889
6061.94,0.93020
6038.8,0.92594
6015.65,0.92189
5992.51,0.91953
5969.37,0.91843
5946.22,0.91324
5923.08,0.91534
5899.93,0.90629
5876.79,0.89014
5853.64,0.85661
5830.5,0.82638
5807.35,0.78588
5784.21,0.73231
5761.06,0.77895
5737.92,0.84706
5714.78,0.85865
5691.63,0.83804
5668.49,0.81441
5645.34,0.84835
5622.2,0.86514
5599.05,0.87707
5575.91,0.87222
5552.76,0.87180
5529.62,0.87240
5506.47,0.87016
5483.33,0.87787
5460.19,0.87492
5437.04,0.87757
5413.9,0.87837
5390.75,0.88912
5367.61,0.89492
5344.46,0.88689
5321.32,0.90187
5298.17,0.90005
5275.03,0.90047
5251.88,0.89871
5228.74,0.89751
5205.6,0.89420
5182.45,0.90035
5159.31,0.90018
5136.16,0.90420
5113.02,0.90460
5089.87,0.90467
5066.73,0.90551
5043.58,0.90858
5020.44,0.90617
4997.29,0.90595
4974.15,0.90629
4951.01,0.90701
4927.86,0.90707
4904.72,0.90761
4881.57,0.90718
4858.43,0.90948
4835.28,0.91023
4812.14,0.91145
4788.99,0.91323
4765.85,0.91090
4742.7,0.91199
4719.56,0.91071
4696.42,0.90736
4673.27,0.90059
4650.13,0.90938
4626.98,0.91256
4603.84,0.91349
4580.69,0.91195
4557.55,0.90990
4534.4,0.90503
4511.26,0.89895
4488.11,0.88699
4464.97,0.87110
4441.83,0.83837
4418.68,0.80762
4395.54,0.75527
4372.39,0.67255
4349.25,0.51312
4326.1,0.28119
4302.96,0.59783
4279.81,0.57780
4256.67,0.38749
4233.52,0.53513
4210.38,0.50513
4187.24,0.45245
4164.09,0.46820
4140.95,0.48452
4117.8,0.50224
4094.66,0.51125
4071.51,0.58610
4048.37,0.61716
4025.22,0.63567
4002.08,0.69197
3978.93,0.68565
3955.79,0.70322
3932.65,0.69460
3909.5,0.69749
3886.36,0.69635
3863.21,0.70725
3840.07,0.70657
3816.92,0.71434
3793.78,0.75353
3770.63,0.76071
3747.49,0.74334
3724.34,0.75268
3701.2,0.75271
3678.06,0.72853
3654.91,0.71298
3631.77,0.71400
3608.62,0.66863
3585.48,0.77725
3562.33,0.80519
3539.19,0.82379
3516.04,0.82784
3492.9,0.81974
3469.75,0.72842
3446.61,0.69629
3423.47,0.79687
3400.32,0.81057
3377.18,0.79962
3354.03,0.80955
3330.89,0.82052
3307.74,0.82393
3284.6,0.82195
3261.45,0.81731
3238.31,0.80843
3215.16,0.79190
3192.02,0.77084
3168.87,0.74755
3145.73,0.72511
3122.59,0.68278
3099.44,0.58869
3076.3,0.46228
3053.15,0.36654
3030.01,0.23347
3006.86,0.14308
2983.72,0.03431
2960.57,0.00063
2937.43,0.00070
2914.28,0.00074
2891.14,0.00076
2868,0.00033
2844.85,0.00089
2821.71,0.00853
2798.56,0.08090
2775.42,0.21259
2752.27,0.27504
2729.13,0.29527
2705.98,0.34689
2682.84,0.31790
2659.69,0.32369
2636.55,0.34670
2613.41,0.43557
2590.26,0.52051
2567.12,0.60766
2543.97,0.65538
2520.83,0.67878
2497.68,0.70510
2474.54,0.69209
2451.39,0.74934
2428.25,0.75846
2405.1,0.74614
2381.96,0.72820
2358.82,0.57459
2335.67,0.56489
2312.53,0.63758
2289.38,0.71846
2266.24,0.74639
2243.09,0.76667
2219.95,0.79598
2196.8,0.78075
2173.66,0.75228
2150.51,0.74310
2127.37,0.78863
2104.23,0.80049
2081.08,0.79478
2057.94,0.77348
2034.79,0.73021
2011.65,0.73228
1988.5,0.79779
1965.36,0.79517
1942.21,0.78084
1919.07,0.76296
1895.92,0.71056
1872.78,0.70625
1849.64,0.70211
1826.49,0.64237
1803.35,0.55390
1780.2,0.38987
1757.06,0.05109
1733.91,0.00019
1710.77,0.15579
1687.62,0.35184
1664.48,0.53285
1641.33,0.55999
1618.19,0.64962
1595.05,0.65840
1571.9,0.62460
1548.76,0.58826
1525.61,0.52468
1502.47,0.43813
1479.32,0.11145
1456.18,0.00083
1433.03,0.02372
1409.89,0.26916
1386.74,0.07835
1363.6,0.00257
1340.46,0.22278
1317.31,0.24640
1294.17,0.12777
1271.02,0.01627
1247.88,0.00051
1224.73,0.00042
1201.59,0.09077
1178.44,0.20891
1155.3,0.18015
1132.15,0.12299
1109.01,0.15825
1085.87,0.12679
1062.72,0.07684
1039.58,0.02506
1016.43,0.00153
993.287,0.20885
970.142,0.18495
946.998,0.17449
923.853,0.38833
900.709,0.48602
877.564,0.50295
854.42,0.53295
831.275,0.60658
808.131,0.59207
784.986,0.62961
761.842,0.56613
738.697,0.30989
715.552,0.05042
692.408,0.70178
669.263,0.68623
646.119,0.57378
622.974,0.55178
599.83,0.52610