File: 01_Data/PEVA/FTIR/IS/PEVA_0.18_IS_S_240809_R1.dpt
7497.33,0.10728
7474.19,0.09483
7451.04,0.10909
7427.9,0.09427
7404.75,0.08879
7381.6,0.11008
7358.46,0.09530
7335.31,0.10926
7312.17,0.11268
7289.02,0.09063
7265.87,0.10865
7242.73,0.11732
7219.58,0.10614
7196.44,0.10317
7173.29,0.10346
7150.15,0.10709
7127,0.09240
7103.85,0.10044
7080.71,0.10510
7057.56,0.09836
7034.42,0.10527
7011.27,0.09895
6988.12,0.10456
6964.98,0.10273
6941.83,0.09345
6918.69,0.10345
6895.54,0.10559
6872.39,0.09720
6849.25,0.09985
6826.1,0.10934
6802.96,0.09810
6779.81,0.09486
6756.67,0.09871
6733.52,0.10127
6710.37,0.10076
6687.23,0.09893
6664.08,0.10508
6640.94,0.10721
6617.79,0.10046
6594.64,0.10503
6571.5,0.09677
6548.35,0.10409
6525.21,0.10257
6502.06,0.09700
6478.92,0.10109
6455.77,0.10306
6432.62,0.10058
6409.48,0.09972
6386.33,0.10413
6363.19,0.10127
6340.04,0.10619
6316.89,0.10277
6293.75,0.10287
6270.6,0.10393
6247.46,0.10290
6224.31,0.10040
6201.16,0.10323
6178.02,0.10192
6154.87,0.09946
6131.73,0.10055
6108.58,0.09783
6085.44,0.10034
6062.29,0.09996
6039.14,0.10096
6016,0.09801
5992.85,0.10058
5969.71,0.09714
5946.56,0.09961
5923.41,0.10030
5900.27,0.09664
5877.12,0.10069
5853.98,0.09366
5830.83,0.09119
5807.68,0.08981
5784.54,0.08750
5761.39,0.09006
5738.25,0.09476
5715.1,0.09557
5691.96,0.09086
5668.81,0.09525
5645.66,0.09266
5622.52,0.09894
5599.37,0.09739
5576.23,0.09645
5553.08,0.09575
5529.93,0.09817
5506.79,0.09914
5483.64,0.09586
5460.5,0.10171
5437.35,0.09752
5414.21,0.09744
5391.06,0.09859
5367.91,0.10161
5344.77,0.10099
5321.62,0.10063
5298.48,0.09854
5275.33,0.09926
5252.18,0.10114
5229.04,0.09942
5205.89,0.09975
5182.75,0.09858
5159.6,0.10047
5136.45,0.10158
5113.31,0.10016
5090.16,0.10004
5067.02,0.10063
5043.87,0.10168
5020.73,0.10024
4997.58,0.09909
4974.43,0.09965
4951.29,0.10060
4928.14,0.09983
4905,0.10177
4881.85,0.10136
4858.7,0.10218
4835.56,0.10059
4812.41,0.10031
4789.27,0.10199
4766.12,0.10239
4742.97,0.10073
4719.83,0.10324
4696.68,0.10196
4673.54,0.10101
4650.39,0.10209
4627.25,0.10226
4604.1,0.10094
4580.95,0.10021
4557.81,0.10263
4534.66,0.10065
4511.52,0.10204
4488.37,0.10033
4465.22,0.09938
4442.08,0.09643
4418.93,0.09380
4395.79,0.08891
4372.64,0.08242
4349.49,0.07369
4326.35,0.06367
4303.2,0.07733
4280.06,0.07731
4256.91,0.06954
4233.77,0.07579
4210.62,0.07397
4187.47,0.07072
4164.33,0.07148
4141.18,0.07218
4118.04,0.07295
4094.89,0.07377
4071.74,0.07840
4048.6,0.08028
4025.45,0.08134
4002.31,0.08475
3979.16,0.08463
3956.02,0.08510
3932.87,0.08476
3909.72,0.08452
3886.58,0.08553
3863.43,0.08717
3840.29,0.08753
3817.14,0.08908
3793.99,0.09017
3770.85,0.09159
3747.7,0.09134
3724.56,0.09200
3701.41,0.08915
3678.26,0.08760
3655.12,0.08591
3631.97,0.08583
3608.83,0.08263
3585.68,0.09107
3562.54,0.09300
3539.39,0.09455
3516.24,0.09420
3493.1,0.09235
3469.95,0.08538
3446.81,0.08134
3423.66,0.08959
3400.51,0.09048
3377.37,0.09023
3354.22,0.09059
3331.08,0.09099
3307.93,0.09123
3284.78,0.09073
3261.64,0.08977
3238.49,0.08960
3215.35,0.08732
3192.2,0.08598
3169.06,0.08519
3145.91,0.08399
3122.76,0.08118
3099.62,0.07385
3076.47,0.06597
3053.33,0.06125
3030.18,0.05670
3007.03,0.05364
2983.89,0.05166
2960.74,0.04813
2937.6,0.03978
2914.45,0.08896
2891.31,0.06919
2868.16,0.05962
2845.01,0.08508
2821.87,0.06823
2798.72,0.06741
2775.58,0.06898
2752.43,0.06875
2729.28,0.06746
2706.14,0.06789
2682.99,0.06645
2659.85,0.06720
2636.7,0.06902
2613.55,0.07362
2590.41,0.07787
2567.26,0.08247
2544.12,0.08395
2520.97,0.08516
2497.83,0.08669
2474.68,0.08625
2451.53,0.09141
2428.39,0.09300
2405.24,0.09237
2382.1,0.09282
2358.95,0.09061
2335.8,0.08521
2312.66,0.08443
2289.51,0.08538
2266.37,0.08744
2243.22,0.08925
2220.07,0.09340
2196.93,0.09353
2173.78,0.09266
2150.64,0.09198
2127.49,0.09551
2104.35,0.09470
2081.2,0.09296
2058.05,0.08977
2034.91,0.08585
2011.76,0.08606
1988.62,0.09219
1965.47,0.09244
1942.32,0.09286
1919.18,0.09195
1896.03,0.08816
1872.89,0.08665
1849.74,0.08432
1826.6,0.07926
1803.45,0.07437
1780.3,0.06709
1757.16,0.06246
1734.01,0.06289
1710.87,0.05949
1687.72,0.06569
1664.57,0.07202
1641.43,0.07353
1618.28,0.07952
1595.14,0.07896
1571.99,0.07604
1548.84,0.07540
1525.7,0.07450
1502.55,0.06893
1479.41,0.05616
1456.26,0.06376
1433.12,0.06146
1409.97,0.06233
1386.82,0.05505
1363.68,0.05742
1340.53,0.05930
1317.39,0.06155
1294.24,0.06169
1271.09,0.06702
1247.95,0.06697
1224.8,0.05126
1201.66,0.05826
1178.51,0.05946
1155.36,0.06058
1132.22,0.06039
1109.07,0.06157
1085.93,0.06125
1062.78,0.06299
1039.64,0.06452
1016.49,0.06304
993.344,0.06099
970.198,0.06130
947.052,0.06178
923.906,0.07173
900.76,0.07575
877.614,0.06966
854.468,0.06444
831.323,0.06667
808.177,0.07744
785.031,0.08929
761.885,0.08593
738.739,0.05463
715.593,0.06230
692.447,0.10218
669.301,0.07984
646.156,0.05366
623.01,0.05817
599.864,0.05785