File: 01_Data/PEVA/FTIR/IS/PEVA_0.18_IS_T_240809_R6.dpt
7497.33,0.03250
7474.19,0.03149
7451.04,0.04048
7427.9,0.03756
7404.75,0.02026
7381.6,0.03160
7358.46,0.04171
7335.31,0.03922
7312.17,0.04922
7289.02,0.03898
7265.87,0.03908
7242.73,0.03211
7219.58,0.03808
7196.44,0.03397
7173.29,0.03299
7150.15,0.02556
7127,0.02814
7103.85,0.03554
7080.71,0.03560
7057.56,0.03219
7034.42,0.02372
7011.27,0.04212
6988.12,0.03530
6964.98,0.03974
6941.83,0.02670
6918.69,0.03363
6895.54,0.03581
6872.39,0.03195
6849.25,0.03917
6826.1,0.03727
6802.96,0.02982
6779.81,0.03413
6756.67,0.03212
6733.52,0.03447
6710.37,0.03176
6687.23,0.02851
6664.08,0.03202
6640.94,0.03919
6617.79,0.03329
6594.64,0.02666
6571.5,0.03000
6548.35,0.03038
6525.21,0.02789
6502.06,0.03275
6478.92,0.02867
6455.77,0.03005
6432.62,0.02523
6409.48,0.03169
6386.33,0.03378
6363.19,0.02835
6340.04,0.02731
6316.89,0.02907
6293.75,0.02880
6270.6,0.03118
6247.46,0.03346
6224.31,0.03028
6201.16,0.02532
6178.02,0.03505
6154.87,0.03325
6131.73,0.03243
6108.58,0.03000
6085.44,0.03381
6062.29,0.02872
6039.14,0.02818
6016,0.02790
5992.85,0.03035
5969.71,0.03076
5946.56,0.03390
5923.41,0.03185
5900.27,0.02984
5877.12,0.03277
5853.98,0.02929
5830.83,0.03043
5807.68,0.03076
5784.54,0.03068
5761.39,0.02833
5738.25,0.03107
5715.1,0.02895
5691.96,0.02997
5668.81,0.03131
5645.66,0.02898
5622.52,0.02997
5599.37,0.03041
5576.23,0.03060
5553.08,0.02797
5529.93,0.03068
5506.79,0.02880
5483.64,0.02927
5460.5,0.02864
5437.35,0.02948
5414.21,0.03013
5391.06,0.02855
5367.91,0.03101
5344.77,0.03091
5321.62,0.02867
5298.48,0.02868
5275.33,0.02988
5252.18,0.02842
5229.04,0.02884
5205.89,0.02993
5182.75,0.02928
5159.6,0.02993
5136.45,0.02905
5113.31,0.02950
5090.16,0.02930
5067.02,0.02948
5043.87,0.02923
5020.73,0.03064
4997.58,0.02990
4974.43,0.03051
4951.29,0.03034
4928.14,0.03085
4905,0.03025
4881.85,0.02989
4858.7,0.03014
4835.56,0.03018
4812.41,0.02879
4789.27,0.02982
4766.12,0.03045
4742.97,0.03041
4719.83,0.03040
4696.68,0.03095
4673.54,0.02965
4650.39,0.03007
4627.25,0.02996
4604.1,0.02946
4580.95,0.02998
4557.81,0.02986
4534.66,0.03035
4511.52,0.02975
4488.37,0.03023
4465.22,0.03028
4442.08,0.02949
4418.93,0.02986
4395.79,0.02974
4372.64,0.02989
4349.49,0.02915
4326.35,0.02860
4303.2,0.02987
4280.06,0.02987
4256.91,0.02941
4233.77,0.02978
4210.62,0.02949
4187.47,0.02942
4164.33,0.02931
4141.18,0.02944
4118.04,0.03032
4094.89,0.02980
4071.74,0.02915
4048.6,0.02994
4025.45,0.02936
4002.31,0.02947
3979.16,0.02948
3956.02,0.02989
3932.87,0.02972
3909.72,0.02957
3886.58,0.03017
3863.43,0.03066
3840.29,0.03091
3817.14,0.02972
3793.99,0.02905
3770.85,0.03024
3747.7,0.03108
3724.56,0.02982
3701.41,0.02963
3678.26,0.02897
3655.12,0.02869
3631.97,0.02797
3608.83,0.02740
3585.68,0.02693
3562.54,0.02702
3539.39,0.02646
3516.24,0.02617
3493.1,0.02625
3469.95,0.02722
3446.81,0.02593
3423.66,0.02594
3400.51,0.02512
3377.37,0.02528
3354.22,0.02518
3331.08,0.02600
3307.93,0.02568
3284.78,0.02592
3261.64,0.02544
3238.49,0.02624
3215.35,0.02615
3192.2,0.02648
3169.06,0.02595
3145.91,0.02652
3122.76,0.02650
3099.62,0.02696
3076.47,0.02631
3053.33,0.02642
3030.18,0.02621
3007.03,0.02607
2983.89,0.02583
2960.74,0.02524
2937.6,0.02505
2914.45,0.02624
2891.31,0.02602
2868.16,0.02596
2845.01,0.02670
2821.87,0.02633
2798.72,0.02620
2775.58,0.02682
2752.43,0.02690
2729.28,0.02715
2706.14,0.02672
2682.99,0.02715
2659.85,0.02677
2636.7,0.02665
2613.55,0.02712
2590.41,0.02707
2567.26,0.02673
2544.12,0.02683
2520.97,0.02657
2497.83,0.02665
2474.68,0.02688
2451.53,0.02624
2428.39,0.02620
2405.24,0.02619
2382.1,0.02634
2358.95,0.02767
2335.8,0.02705
2312.66,0.02687
2289.51,0.02623
2266.37,0.02622
2243.22,0.02619
2220.07,0.02596
2196.93,0.02578
2173.78,0.02592
2150.64,0.02560
2127.49,0.02583
2104.35,0.02578
2081.2,0.02561
2058.05,0.02541
2034.91,0.02528
2011.76,0.02553
1988.62,0.02541
1965.47,0.02522
1942.32,0.02535
1919.18,0.02552
1896.03,0.02476
1872.89,0.02506
1849.74,0.02444
1826.6,0.02449
1803.45,0.02366
1780.3,0.02296
1757.16,0.02151
1734.01,0.02285
1710.87,0.02412
1687.72,0.02285
1664.57,0.02176
1641.43,0.02160
1618.28,0.02222
1595.14,0.02195
1571.99,0.02157
1548.84,0.02178
1525.7,0.02203
1502.55,0.02210
1479.41,0.02173
1456.26,0.02162
1433.12,0.02128
1409.97,0.02081
1386.82,0.02031
1363.68,0.02047
1340.53,0.02026
1317.39,0.01951
1294.24,0.01990
1271.09,0.02136
1247.95,0.02228
1224.8,0.02141
1201.66,0.02065
1178.51,0.02054
1155.36,0.01983
1132.22,0.02008
1109.07,0.02193
1085.93,0.02182
1062.78,0.02341
1039.64,0.02382
1016.49,0.02290
993.344,0.02400
970.198,0.02284
947.052,0.02252
923.906,0.02238
900.76,0.02217
877.614,0.02209
854.468,0.02127
831.323,0.02035
808.177,0.02167
785.031,0.02037
761.885,0.02066
738.739,0.02043
715.593,0.01893
692.447,0.01980
669.301,0.01923
646.156,0.01797
623.01,0.01804
599.864,0.02129