File: 01_Data/PEVA/FTIR/IS/PEVA_0.26_IS_Trans_S_240819_R7.dpt
7496.91,0.91655
7473.76,0.93322
7450.62,0.93345
7427.47,0.94000
7404.33,0.92571
7381.18,0.92171
7358.04,0.92119
7334.89,0.93042
7311.75,0.91075
7288.61,0.92053
7265.46,0.91260
7242.32,0.89087
7219.17,0.90559
7196.03,0.90133
7172.88,0.92174
7149.74,0.91530
7126.59,0.90536
7103.45,0.90893
7080.3,0.91134
7057.16,0.91166
7034.02,0.91903
7010.87,0.91426
6987.73,0.90724
6964.58,0.91253
6941.44,0.91967
6918.29,0.91117
6895.15,0.92228
6872,0.91978
6848.86,0.92717
6825.71,0.92725
6802.57,0.92622
6779.43,0.92135
6756.28,0.92113
6733.14,0.91786
6709.99,0.93026
6686.85,0.92417
6663.7,0.92609
6640.56,0.92795
6617.41,0.92634
6594.27,0.93232
6571.12,0.92782
6547.98,0.92605
6524.84,0.93225
6501.69,0.92788
6478.55,0.92507
6455.4,0.93444
6432.26,0.93214
6409.11,0.92896
6385.97,0.93178
6362.82,0.92687
6339.68,0.92921
6316.53,0.92773
6293.39,0.92814
6270.24,0.92929
6247.1,0.92511
6223.96,0.92907
6200.81,0.92731
6177.67,0.92578
6154.52,0.92484
6131.38,0.92266
6108.23,0.92040
6085.09,0.91126
6061.94,0.90466
6038.8,0.89096
6015.65,0.87457
5992.51,0.89205
5969.37,0.90127
5946.22,0.89219
5923.08,0.87012
5899.93,0.84217
5876.79,0.80923
5853.64,0.77364
5830.5,0.72488
5807.35,0.75508
5784.21,0.80207
5761.06,0.81763
5737.92,0.81229
5714.78,0.81703
5691.63,0.82167
5668.49,0.83588
5645.34,0.84391
5622.2,0.85692
5599.05,0.86217
5575.91,0.86690
5552.76,0.87301
5529.62,0.87313
5506.47,0.87167
5483.33,0.87924
5460.19,0.86816
5437.04,0.87579
5413.9,0.87143
5390.75,0.88241
5367.61,0.88999
5344.46,0.87822
5321.32,0.89648
5298.17,0.89610
5275.03,0.89518
5251.88,0.89149
5228.74,0.89278
5205.6,0.88608
5182.45,0.89605
5159.31,0.89734
5136.16,0.89857
5113.02,0.89672
5089.87,0.89801
5066.73,0.90153
5043.58,0.90289
5020.44,0.90268
4997.29,0.90444
4974.15,0.90436
4951.01,0.90403
4927.86,0.90502
4904.72,0.90395
4881.57,0.90470
4858.43,0.90181
4835.28,0.90249
4812.14,0.90527
4788.99,0.90015
4765.85,0.90265
4742.7,0.90070
4719.56,0.88816
4696.42,0.87508
4673.27,0.87108
4650.13,0.87826
4626.98,0.86564
4603.84,0.88682
4580.69,0.88318
4557.55,0.88917
4534.4,0.88651
4511.26,0.87991
4488.11,0.85920
4464.97,0.84279
4441.83,0.79427
4418.68,0.69608
4395.54,0.61683
4372.39,0.54074
4349.25,0.41104
4326.1,0.37460
4302.96,0.47828
4279.81,0.47078
4256.67,0.48852
4233.52,0.48041
4210.38,0.46610
4187.24,0.50631
4164.09,0.49928
4140.95,0.56039
4117.8,0.58521
4094.66,0.54616
4071.51,0.53956
4048.37,0.61684
4025.22,0.62924
4002.08,0.65304
3978.93,0.68711
3955.79,0.70306
3932.65,0.69703
3909.5,0.70664
3886.36,0.70576
3863.21,0.70032
3840.07,0.69610
3816.92,0.71436
3793.78,0.74786
3770.63,0.74866
3747.49,0.72385
3724.34,0.74886
3701.2,0.73900
3678.06,0.65428
3654.91,0.68359
3631.77,0.67303
3608.62,0.64015
3585.48,0.61384
3562.33,0.57312
3539.19,0.55049
3516.04,0.53398
3492.9,0.48789
3469.75,0.42584
3446.61,0.36579
3423.47,0.28898
3400.32,0.38279
3377.18,0.46647
3354.03,0.50169
3330.89,0.48696
3307.74,0.34816
3284.6,0.45226
3261.45,0.55345
3238.31,0.56475
3215.16,0.55178
3192.02,0.53805
3168.87,0.54204
3145.73,0.53074
3122.59,0.49007
3099.44,0.41643
3076.3,0.33395
3053.15,0.27050
3030.01,0.24036
3006.86,0.08354
2983.72,0.00034
2960.57,0.00034
2937.43,0.00017
2914.28,0.00072
2891.14,0.00059
2868,0.00074
2844.85,0.00099
2821.71,0.06124
2798.56,0.21599
2775.42,0.34427
2752.27,0.36206
2729.13,0.33759
2705.98,0.44206
2682.84,0.46061
2659.69,0.48152
2636.55,0.49992
2613.41,0.48480
2590.26,0.48567
2567.12,0.49411
2543.97,0.51538
2520.83,0.54207
2497.68,0.58902
2474.54,0.60872
2451.39,0.61539
2428.25,0.58593
2405.1,0.54336
2381.96,0.49360
2358.82,0.41273
2335.67,0.50262
2312.53,0.58925
2289.38,0.61377
2266.24,0.61343
2243.09,0.62171
2219.95,0.63064
2196.8,0.66748
2173.66,0.69345
2150.51,0.68537
2127.37,0.67836
2104.23,0.67076
2081.08,0.65655
2057.94,0.65945
2034.79,0.67759
2011.65,0.69560
1988.5,0.66172
1965.36,0.60679
1942.21,0.51594
1919.07,0.62744
1895.92,0.64557
1872.78,0.65208
1849.64,0.59354
1826.49,0.41391
1803.35,0.42520
1780.2,0.29865
1757.06,0.08645
1733.91,0.00084
1710.77,0.00024
1687.62,0.04873
1664.48,0.18257
1641.33,0.19695
1618.19,0.29837
1595.05,0.34835
1571.9,0.16338
1548.76,0.26546
1525.61,0.24701
1502.47,0.07719
1479.32,0.03870
1456.18,0.00014
1433.03,0.00029
1409.89,0.00024
1386.74,0.00043
1363.6,0.00153
1340.46,0.00026
1317.31,0.00031
1294.17,0.00022
1271.02,0.00035
1247.88,0.00040
1224.73,0.00076
1201.59,0.00152
1178.44,0.01171
1155.3,0.00611
1132.15,0.00022
1109.01,0.00040
1085.87,0.00076
1062.72,0.01435
1039.58,0.02313
1016.43,0.00070
993.287,0.00216
970.142,0.00036
946.998,0.00059
923.853,0.00361
900.709,0.02634
877.564,0.00493
854.42,0.03948
831.275,0.02932
808.131,0.16160
784.986,0.10189
761.842,0.10186
738.697,0.00592
715.552,0.02265
692.408,0.00050
669.263,0.01254
646.119,0.00174
622.974,0.00081
599.83,0.00470