File: 01_Data/PEVA/FTIR/IS/PEVA_0.10_IS_Trans_T_240819_R6.dpt
7496.91,0.03139
7473.76,0.01266
7450.62,0.03824
7427.47,0.01226
7404.33,0.03427
7381.18,0.03013
7358.04,0.01387
7334.89,0.01945
7311.75,-0.00110
7288.61,0.02763
7265.46,0.03140
7242.32,0.01125
7219.17,0.02265
7196.03,0.02168
7172.88,0.01817
7149.74,0.01724
7126.59,0.01773
7103.45,0.01494
7080.3,0.00676
7057.16,0.00665
7034.02,0.01457
7010.87,0.01187
6987.73,0.00818
6964.58,0.01364
6941.44,0.02233
6918.29,0.02867
6895.15,0.02441
6872,0.00839
6848.86,0.00878
6825.71,0.01804
6802.57,0.01257
6779.43,0.02100
6756.28,0.01699
6733.14,0.00786
6709.99,0.01167
6686.85,0.00808
6663.7,0.01554
6640.56,0.01038
6617.41,0.00138
6594.27,0.01137
6571.12,0.01963
6547.98,0.00250
6524.84,0.01460
6501.69,0.00156
6478.55,0.00641
6455.4,0.01502
6432.26,0.00777
6409.11,0.01650
6385.97,0.01246
6362.82,0.00669
6339.68,0.01396
6316.53,0.01826
6293.39,0.00709
6270.24,0.00486
6247.1,0.00581
6223.96,0.00552
6200.81,0.00797
6177.67,0.01279
6154.52,0.00425
6131.38,0.00546
6108.23,0.00701
6085.09,0.00869
6061.94,0.00505
6038.8,0.01141
6015.65,0.00362
5992.51,0.00902
5969.37,0.00260
5946.22,0.00861
5923.08,0.00162
5899.93,0.00581
5876.79,0.00663
5853.64,0.00486
5830.5,0.00455
5807.35,0.00564
5784.21,0.00495
5761.06,0.00396
5737.92,0.00503
5714.78,0.00535
5691.63,0.00762
5668.49,-0.00008
5645.34,0.00337
5622.2,0.00105
5599.05,0.00389
5575.91,0.00556
5552.76,0.00160
5529.62,0.00288
5506.47,0.00523
5483.33,0.00366
5460.19,0.00392
5437.04,0.00559
5413.9,0.00559
5390.75,0.00294
5367.61,0.00139
5344.46,0.00510
5321.32,0.00190
5298.17,0.00186
5275.03,0.00372
5251.88,0.00504
5228.74,0.00222
5205.6,0.00294
5182.45,0.00511
5159.31,0.00327
5136.16,0.00625
5113.02,0.00200
5089.87,0.00285
5066.73,0.00297
5043.58,0.00254
5020.44,0.00294
4997.29,0.00311
4974.15,0.00298
4951.01,0.00174
4927.86,0.00268
4904.72,0.00301
4881.57,0.00206
4858.43,0.00122
4835.28,0.00375
4812.14,-0.00090
4788.99,0.00242
4765.85,0.00261
4742.7,0.00267
4719.56,0.00170
4696.42,0.00058
4673.27,0.00136
4650.13,0.00240
4626.98,0.00160
4603.84,0.00134
4580.69,0.00162
4557.55,0.00288
4534.4,0.00173
4511.26,0.00233
4488.11,0.00082
4464.97,0.00103
4441.83,0.00107
4418.68,0.00134
4395.54,0.00142
4372.39,0.00288
4349.25,0.00193
4326.1,0.00136
4302.96,0.00114
4279.81,0.00272
4256.67,0.00326
4233.52,0.00124
4210.38,0.00100
4187.24,0.00158
4164.09,0.00183
4140.95,0.00133
4117.8,0.00133
4094.66,0.00063
4071.51,0.00156
4048.37,0.00158
4025.22,0.00119
4002.08,0.00076
3978.93,0.00128
3955.79,0.00113
3932.65,0.00207
3909.5,0.00186
3886.36,0.00207
3863.21,0.00187
3840.07,0.00297
3816.92,0.00199
3793.78,0.00132
3770.63,0.00129
3747.49,0.00299
3724.34,0.00101
3701.2,0.00099
3678.06,0.00257
3654.91,0.00276
3631.77,0.00214
3608.62,0.00039
3585.48,0.00010
3562.33,0.00208
3539.19,0.00101
3516.04,0.00100
3492.9,0.00150
3469.75,-0.00037
3446.61,0.00165
3423.47,0.00056
3400.32,0.00115
3377.18,0.00076
3354.03,0.00253
3330.89,0.00263
3307.74,0.00144
3284.6,0.00042
3261.45,-0.00046
3238.31,0.00138
3215.16,0.00286
3192.02,0.00346
3168.87,0.00221
3145.73,0.00193
3122.59,0.00055
3099.44,0.00096
3076.3,0.00129
3053.15,0.00043
3030.01,0.00021
3006.86,0.00082
2983.72,0.00112
2960.57,0.00077
2937.43,0.00124
2914.28,0.00061
2891.14,0.00150
2868,0.00008
2844.85,0.00003
2821.71,0.00007
2798.56,0.00064
2775.42,0.00072
2752.27,0.00093
2729.13,0.00075
2705.98,0.00005
2682.84,0.00101
2659.69,0.00063
2636.55,0.00077
2613.41,0.00121
2590.26,0.00049
2567.12,0.00083
2543.97,0.00037
2520.83,0.00057
2497.68,0.00099
2474.54,0.00054
2451.39,0.00007
2428.25,0.00080
2405.1,0.00044
2381.96,0.00086
2358.82,0.00133
2335.67,0.00123
2312.53,0.00014
2289.38,0.00103
2266.24,0.00069
2243.09,0.00022
2219.95,0.00047
2196.8,0.00060
2173.66,0.00156
2150.51,0.00061
2127.37,0.00008
2104.23,0.00088
2081.08,0.00083
2057.94,0.00026
2034.79,0.00102
2011.65,0.00091
1988.5,0.00066
1965.36,0.00030
1942.21,0.00014
1919.07,0.00066
1895.92,0.00009
1872.78,0.00073
1849.64,0.00038
1826.49,0.00074
1803.35,0.00036
1780.2,0.00066
1757.06,0.00022
1733.91,0.00144
1710.77,0.00095
1687.62,0.00151
1664.48,0.00083
1641.33,0.00027
1618.19,0.00078
1595.05,0.00037
1571.9,0.00111
1548.76,0.00036
1525.61,0.00060
1502.47,0.00065
1479.32,0.00016
1456.18,0.00208
1433.03,0.00107
1409.89,0.00047
1386.74,0.00087
1363.6,0.00074
1340.46,0.00032
1317.31,0.00030
1294.17,0.00046
1271.02,0.00103
1247.88,0.00053
1224.73,0.00063
1201.59,0.00083
1178.44,0.00094
1155.3,0.00087
1132.15,0.00086
1109.01,0.00135
1085.87,0.00110
1062.72,0.00103
1039.58,0.00082
1016.43,0.00055
993.287,0.00080
970.142,0.00056
946.998,0.00041
923.853,0.00214
900.709,0.00144
877.564,0.00118
854.42,0.00029
831.275,0.00170
808.131,0.00184
784.986,0.00106
761.842,0.00165
738.697,0.00164
715.552,0.00117
692.408,0.00283
669.263,0.00114
646.119,0.00276
622.974,0.00574
599.83,0.00302