File: 01_Data/PEVA/FTIR/IS/PEVA_0.26_IS_S_240809_R8.dpt
7497.2,0.09353
7474.05,0.09735
7450.91,0.10059
7427.76,0.10296
7404.62,0.10089
7381.47,0.10884
7358.33,0.11165
7335.18,0.10818
7312.04,0.09239
7288.89,0.10722
7265.75,0.09533
7242.6,0.10475
7219.45,0.09282
7196.31,0.10222
7173.16,0.10282
7150.02,0.09864
7126.87,0.09950
7103.73,0.09812
7080.58,0.10327
7057.44,0.09771
7034.29,0.09947
7011.15,0.10057
6988,0.10312
6964.85,0.10040
6941.71,0.10229
6918.56,0.10344
6895.42,0.09654
6872.27,0.10605
6849.13,0.09973
6825.98,0.10366
6802.84,0.09246
6779.69,0.10361
6756.55,0.11131
6733.4,0.10238
6710.25,0.10540
6687.11,0.09997
6663.96,0.09872
6640.82,0.10632
6617.67,0.09700
6594.53,0.10475
6571.38,0.10231
6548.24,0.10127
6525.09,0.10409
6501.95,0.10380
6478.8,0.10088
6455.65,0.10480
6432.51,0.10219
6409.36,0.10215
6386.22,0.10224
6363.07,0.10140
6339.93,0.10091
6316.78,0.10415
6293.64,0.10059
6270.49,0.10309
6247.34,0.10038
6224.2,0.10361
6201.05,0.10464
6177.91,0.10147
6154.76,0.10517
6131.62,0.10507
6108.47,0.10201
6085.33,0.10071
6062.18,0.09933
6039.04,0.09770
6015.89,0.09882
5992.74,0.09943
5969.6,0.09926
5946.45,0.09949
5923.31,0.09646
5900.16,0.09338
5877.02,0.09080
5853.87,0.08991
5830.73,0.08455
5807.58,0.08652
5784.44,0.08929
5761.29,0.09451
5738.14,0.09246
5715,0.09160
5691.85,0.09261
5668.71,0.09502
5645.56,0.09534
5622.42,0.09698
5599.27,0.09776
5576.13,0.09919
5552.98,0.10023
5529.84,0.09772
5506.69,0.10017
5483.54,0.09724
5460.4,0.09961
5437.25,0.09983
5414.11,0.10041
5390.96,0.09805
5367.82,0.09918
5344.67,0.10216
5321.53,0.10159
5298.38,0.10070
5275.24,0.09932
5252.09,0.10288
5228.94,0.10064
5205.8,0.10278
5182.65,0.10209
5159.51,0.10223
5136.36,0.10181
5113.22,0.10162
5090.07,0.10190
5066.93,0.10138
5043.78,0.10226
5020.64,0.10184
4997.49,0.10280
4974.34,0.10160
4951.2,0.10184
4928.05,0.10311
4904.91,0.10238
4881.76,0.10113
4858.62,0.10290
4835.47,0.10205
4812.33,0.10296
4789.18,0.10289
4766.04,0.10357
4742.89,0.10275
4719.74,0.10091
4696.6,0.09969
4673.45,0.10015
4650.31,0.10164
4627.16,0.09976
4604.02,0.10144
4580.87,0.10178
4557.73,0.10091
4534.58,0.10129
4511.44,0.10140
4488.29,0.09879
4465.14,0.09829
4442,0.09330
4418.85,0.08595
4395.71,0.08077
4372.56,0.07636
4349.42,0.06968
4326.27,0.06913
4303.13,0.07266
4279.98,0.07376
4256.84,0.07335
4233.69,0.07322
4210.54,0.07356
4187.4,0.07538
4164.25,0.07446
4141.11,0.07793
4117.96,0.07924
4094.82,0.07610
4071.67,0.07620
4048.53,0.08150
4025.38,0.08184
4002.24,0.08358
3979.09,0.08663
3955.94,0.08780
3932.8,0.08738
3909.65,0.08801
3886.51,0.08787
3863.36,0.08810
3840.22,0.08814
3817.07,0.09053
3793.93,0.09063
3770.78,0.09202
3747.64,0.09178
3724.49,0.09256
3701.34,0.09082
3678.2,0.08427
3655.05,0.08591
3631.91,0.08510
3608.76,0.08249
3585.62,0.08025
3562.47,0.07781
3539.33,0.07602
3516.18,0.07455
3493.04,0.07317
3469.89,0.06947
3446.74,0.06669
3423.6,0.06441
3400.45,0.06743
3377.31,0.07137
3354.16,0.07297
3331.02,0.07074
3307.87,0.06562
3284.73,0.06969
3261.58,0.07477
3238.44,0.07583
3215.29,0.07537
3192.14,0.07452
3169,0.07368
3145.85,0.07390
3122.71,0.07178
3099.56,0.06805
3076.42,0.06475
3053.27,0.06208
3030.13,0.06124
3006.98,0.05830
2983.84,0.05557
2960.69,0.05810
2937.54,0.05858
2914.4,0.06228
2891.25,0.06217
2868.11,0.06195
2844.96,0.06319
2821.82,0.06235
2798.67,0.06409
2775.53,0.06753
2752.38,0.06744
2729.24,0.06717
2706.09,0.07153
2682.94,0.07193
2659.8,0.07270
2636.65,0.07374
2613.51,0.07299
2590.36,0.07319
2567.22,0.07329
2544.07,0.07461
2520.93,0.07555
2497.78,0.07813
2474.64,0.07945
2451.49,0.07996
2428.34,0.07827
2405.2,0.07560
2382.05,0.07373
2358.91,0.07571
2335.76,0.07974
2312.62,0.08200
2289.47,0.08006
2266.33,0.07926
2243.18,0.07955
2220.04,0.08032
2196.89,0.08265
2173.74,0.08456
2150.6,0.08354
2127.45,0.08284
2104.31,0.08254
2081.16,0.08162
2058.02,0.08177
2034.87,0.08260
2011.73,0.08359
1988.58,0.08127
1965.44,0.07754
1942.29,0.07248
1919.14,0.07927
1896,0.07980
1872.85,0.07972
1849.71,0.07558
1826.56,0.06591
1803.42,0.06572
1780.27,0.06117
1757.13,0.05430
1733.98,0.04947
1710.84,0.06874
1687.69,0.06121
1664.54,0.06091
1641.4,0.06055
1618.25,0.06229
1595.11,0.06390
1571.96,0.05836
1548.82,0.05981
1525.67,0.05870
1502.53,0.05605
1479.38,0.05445
1456.24,0.05590
1433.09,0.05479
1409.94,0.05616
1386.8,0.05439
1363.65,0.05429
1340.51,0.05225
1317.36,0.05253
1294.22,0.04756
1271.07,0.06469
1247.93,0.07219
1224.78,0.06776
1201.64,0.06243
1178.49,0.06031
1155.34,0.05905
1132.2,0.05328
1109.05,0.06326
1085.91,0.06684
1062.76,0.06442
1039.62,0.06196
1016.47,0.06540
993.326,0.06120
970.18,0.06130
947.035,0.06421
923.89,0.06262
900.744,0.06222
877.599,0.06102
854.453,0.06130
831.308,0.06161
808.162,0.06243
785.017,0.06041
761.871,0.05874
738.726,0.05091
715.58,0.05961
692.435,0.05930
669.29,0.05944
646.144,0.05651
622.999,0.06131
599.853,0.06755