File: 01_Data/PEVA/FTIR/IS/PEVA_0.18_IS_Trans_T_240819_R7.dpt
7496.91,0.02836
7473.76,0.00494
7450.62,0.01901
7427.47,0.01748
7404.33,0.01326
7381.18,0.02925
7358.04,0.02672
7334.89,0.01174
7311.75,0.01002
7288.61,0.00356
7265.46,0.02148
7242.32,0.00152
7219.17,0.01438
7196.03,0.01549
7172.88,0.01127
7149.74,0.00656
7126.59,0.01208
7103.45,0.02432
7080.3,0.02401
7057.16,0.02243
7034.02,0.03016
7010.87,-0.00199
6987.73,0.01726
6964.58,0.00435
6941.44,0.01546
6918.29,0.00351
6895.15,0.02042
6872,0.01802
6848.86,0.00832
6825.71,0.01128
6802.57,0.01393
6779.43,0.00348
6756.28,0.00277
6733.14,0.00266
6709.99,0.01000
6686.85,0.00826
6663.7,0.00731
6640.56,0.00557
6617.41,0.01840
6594.27,0.01212
6571.12,0.00092
6547.98,0.01638
6524.84,0.00628
6501.69,0.01781
6478.55,0.00148
6455.4,0.01073
6432.26,0.01105
6409.11,0.01363
6385.97,0.00476
6362.82,0.00923
6339.68,0.00770
6316.53,0.01488
6293.39,0.00023
6270.24,0.00221
6247.1,0.00751
6223.96,0.00641
6200.81,0.00660
6177.67,0.00140
6154.52,0.00544
6131.38,0.00384
6108.23,0.00831
6085.09,0.00923
6061.94,0.00544
6038.8,0.00391
6015.65,0.00988
5992.51,0.00953
5969.37,0.00825
5946.22,0.00596
5923.08,0.00395
5899.93,0.00228
5876.79,0.00444
5853.64,0.00521
5830.5,0.00476
5807.35,0.00273
5784.21,0.00918
5761.06,0.00621
5737.92,0.00072
5714.78,0.00266
5691.63,0.00387
5668.49,0.00348
5645.34,0.00518
5622.2,0.00300
5599.05,0.00300
5575.91,0.00698
5552.76,0.00056
5529.62,0.00120
5506.47,0.00381
5483.33,0.00186
5460.19,0.00019
5437.04,0.00167
5413.9,0.00477
5390.75,0.00598
5367.61,0.00380
5344.46,0.00449
5321.32,0.00297
5298.17,0.00094
5275.03,0.00015
5251.88,0.00466
5228.74,0.00416
5205.6,0.00122
5182.45,0.00482
5159.31,0.00296
5136.16,0.00260
5113.02,0.00351
5089.87,0.00386
5066.73,0.00478
5043.58,0.00297
5020.44,0.00011
4997.29,0.00077
4974.15,0.00315
4951.01,0.00065
4927.86,0.00081
4904.72,0.00224
4881.57,0.00019
4858.43,0.00203
4835.28,0.00190
4812.14,0.00102
4788.99,0.00171
4765.85,0.00084
4742.7,0.00252
4719.56,0.00220
4696.42,0.00098
4673.27,0.00154
4650.13,0.00200
4626.98,0.00191
4603.84,0.00417
4580.69,0.00233
4557.55,0.00155
4534.4,0.00274
4511.26,0.00215
4488.11,0.00100
4464.97,0.00090
4441.83,0.00157
4418.68,0.00171
4395.54,0.00095
4372.39,0.00212
4349.25,0.00139
4326.1,0.00071
4302.96,0.00070
4279.81,0.00136
4256.67,-0.00043
4233.52,0.00050
4210.38,0.00200
4187.24,0.00115
4164.09,0.00031
4140.95,0.00213
4117.8,0.00039
4094.66,0.00024
4071.51,0.00089
4048.37,0.00164
4025.22,0.00095
4002.08,0.00082
3978.93,0.00108
3955.79,0.00107
3932.65,0.00145
3909.5,0.00115
3886.36,0.00149
3863.21,0.00240
3840.07,0.00039
3816.92,0.00186
3793.78,0.00067
3770.63,0.00231
3747.49,0.00152
3724.34,0.00299
3701.2,0.00175
3678.06,0.00104
3654.91,0.00068
3631.77,0.00100
3608.62,0.00162
3585.48,0.00111
3562.33,0.00039
3539.19,0.00110
3516.04,0.00169
3492.9,0.00123
3469.75,0.00101
3446.61,0.00026
3423.47,0.00167
3400.32,0.00004
3377.18,0.00063
3354.03,0.00260
3330.89,0.00136
3307.74,0.00230
3284.6,0.00158
3261.45,0.00143
3238.31,0.00177
3215.16,0.00272
3192.02,0.00119
3168.87,0.00180
3145.73,0.00200
3122.59,0.00072
3099.44,0.00129
3076.3,0.00113
3053.15,0.00133
3030.01,0.00050
3006.86,0.00048
2983.72,0.00045
2960.57,0.00082
2937.43,0.00012
2914.28,0.00056
2891.14,0.00085
2868,0.00127
2844.85,0.00117
2821.71,-0.00035
2798.56,0.00089
2775.42,0.00056
2752.27,0.00093
2729.13,0.00011
2705.98,0.00055
2682.84,0.00057
2659.69,0.00111
2636.55,0.00042
2613.41,0.00061
2590.26,0.00050
2567.12,0.00050
2543.97,0.00098
2520.83,0.00034
2497.68,0.00076
2474.54,0.00094
2451.39,0.00059
2428.25,0.00077
2405.1,0.00028
2381.96,0.00029
2358.82,0.00137
2335.67,0.00132
2312.53,0.00062
2289.38,-0.00015
2266.24,0.00027
2243.09,0.00103
2219.95,0.00066
2196.8,0.00066
2173.66,0.00055
2150.51,0.00010
2127.37,0.00073
2104.23,0.00043
2081.08,-0.00001
2057.94,0.00086
2034.79,0.00067
2011.65,0.00085
1988.5,0.00024
1965.36,0.00029
1942.21,0.00034
1919.07,0.00047
1895.92,0.00036
1872.78,0.00037
1849.64,0.00062
1826.49,0.00103
1803.35,0.00030
1780.2,0.00072
1757.06,0.00125
1733.91,0.00116
1710.77,0.00041
1687.62,0.00123
1664.48,0.00050
1641.33,0.00086
1618.19,0.00081
1595.05,0.00046
1571.9,0.00115
1548.76,0.00094
1525.61,0.00054
1502.47,0.00025
1479.32,0.00044
1456.18,0.00043
1433.03,0.00048
1409.89,0.00037
1386.74,0.00121
1363.6,0.00033
1340.46,-0.00002
1317.31,-0.00001
1294.17,0.00047
1271.02,0.00031
1247.88,0.00067
1224.73,0.00094
1201.59,0.00105
1178.44,0.00009
1155.3,0.00035
1132.15,0.00059
1109.01,0.00122
1085.87,0.00010
1062.72,0.00131
1039.58,0.00186
1016.43,0.00087
993.287,0.00011
970.142,0.00060
946.998,0.00102
923.853,0.00057
900.709,0.00182
877.564,0.00168
854.42,0.00148
831.275,0.00200
808.131,0.00122
784.986,0.00202
761.842,0.00054
738.697,0.00107
715.552,0.00040
692.408,0.00087
669.263,0.00287
646.119,0.00207
622.974,0.00210
599.83,0.00343