File: 01_Data/PEVA/FTIR/IS/PEVA_0.18_IS_Trans_S_240819_R8.dpt
7496.91,0.94951
7473.76,0.94503
7450.62,0.93411
7427.47,0.93493
7404.33,0.93296
7381.18,0.92669
7358.04,0.91397
7334.89,0.92716
7311.75,0.90841
7288.61,0.92794
7265.46,0.92162
7242.32,0.89336
7219.17,0.90086
7196.03,0.92479
7172.88,0.91383
7149.74,0.92576
7126.59,0.91577
7103.45,0.91590
7080.3,0.92957
7057.16,0.92071
7034.02,0.92541
7010.87,0.91873
6987.73,0.92546
6964.58,0.92600
6941.44,0.92170
6918.29,0.91819
6895.15,0.92324
6872,0.92544
6848.86,0.92575
6825.71,0.93563
6802.57,0.92518
6779.43,0.94207
6756.28,0.93785
6733.14,0.93000
6709.99,0.92762
6686.85,0.93628
6663.7,0.93972
6640.56,0.93847
6617.41,0.94033
6594.27,0.94368
6571.12,0.93460
6547.98,0.93726
6524.84,0.94009
6501.69,0.93471
6478.55,0.93450
6455.4,0.94079
6432.26,0.94015
6409.11,0.93880
6385.97,0.93356
6362.82,0.93937
6339.68,0.93320
6316.53,0.93514
6293.39,0.93661
6270.24,0.94449
6247.1,0.94038
6223.96,0.93820
6200.81,0.93682
6177.67,0.93657
6154.52,0.92962
6131.38,0.93185
6108.23,0.93516
6085.09,0.93028
6061.94,0.93012
6038.8,0.92248
6015.65,0.92436
5992.51,0.92332
5969.37,0.91741
5946.22,0.91293
5923.08,0.90776
5899.93,0.90517
5876.79,0.88523
5853.64,0.85650
5830.5,0.82447
5807.35,0.78547
5784.21,0.73053
5761.06,0.77738
5737.92,0.84398
5714.78,0.85754
5691.63,0.83944
5668.49,0.81051
5645.34,0.84756
5622.2,0.86699
5599.05,0.87588
5575.91,0.87671
5552.76,0.86972
5529.62,0.87208
5506.47,0.86832
5483.33,0.87544
5460.19,0.87098
5437.04,0.87309
5413.9,0.86953
5390.75,0.88882
5367.61,0.89310
5344.46,0.87844
5321.32,0.89993
5298.17,0.89890
5275.03,0.90165
5251.88,0.89546
5228.74,0.89397
5205.6,0.89205
5182.45,0.90003
5159.31,0.89841
5136.16,0.90232
5113.02,0.90413
5089.87,0.90287
5066.73,0.90508
5043.58,0.90800
5020.44,0.90702
4997.29,0.90585
4974.15,0.90316
4951.01,0.90455
4927.86,0.90857
4904.72,0.90729
4881.57,0.90594
4858.43,0.90822
4835.28,0.91145
4812.14,0.91132
4788.99,0.91276
4765.85,0.91204
4742.7,0.91007
4719.56,0.90882
4696.42,0.90646
4673.27,0.89906
4650.13,0.90877
4626.98,0.91123
4603.84,0.91068
4580.69,0.91100
4557.55,0.90926
4534.4,0.90505
4511.26,0.89869
4488.11,0.88761
4464.97,0.87144
4441.83,0.83801
4418.68,0.80681
4395.54,0.75374
4372.39,0.67229
4349.25,0.51256
4326.1,0.27992
4302.96,0.59685
4279.81,0.57706
4256.67,0.38603
4233.52,0.53312
4210.38,0.50404
4187.24,0.45218
4164.09,0.46719
4140.95,0.48337
4117.8,0.50097
4094.66,0.50986
4071.51,0.58488
4048.37,0.61555
4025.22,0.63345
4002.08,0.68961
3978.93,0.68479
3955.79,0.70133
3932.65,0.68856
3909.5,0.69584
3886.36,0.68671
3863.21,0.69210
3840.07,0.68731
3816.92,0.69970
3793.78,0.74794
3770.63,0.75136
3747.49,0.71730
3724.34,0.72395
3701.2,0.73327
3678.06,0.71087
3654.91,0.70164
3631.77,0.69239
3608.62,0.65154
3585.48,0.76032
3562.33,0.79155
3539.19,0.81820
3516.04,0.82293
3492.9,0.81545
3469.75,0.72585
3446.61,0.69230
3423.47,0.79404
3400.32,0.80749
3377.18,0.79798
3354.03,0.80714
3330.89,0.81870
3307.74,0.82091
3284.6,0.82076
3261.45,0.81460
3238.31,0.80811
3215.16,0.79091
3192.02,0.76865
3168.87,0.74618
3145.73,0.72314
3122.59,0.68011
3099.44,0.58688
3076.3,0.46043
3053.15,0.36470
3030.01,0.23091
3006.86,0.14194
2983.72,0.03360
2960.57,0.00059
2937.43,0.00083
2914.28,0.00101
2891.14,0.00059
2868,0.00039
2844.85,0.00092
2821.71,0.00867
2798.56,0.07996
2775.42,0.21130
2752.27,0.27342
2729.13,0.29398
2705.98,0.34516
2682.84,0.31601
2659.69,0.32196
2636.55,0.34562
2613.41,0.43374
2590.26,0.51838
2567.12,0.60613
2543.97,0.65384
2520.83,0.67699
2497.68,0.70373
2474.54,0.68997
2451.39,0.74780
2428.25,0.75665
2405.1,0.74488
2381.96,0.69197
2358.82,0.41357
2335.67,0.44102
2312.53,0.56537
2289.38,0.70460
2266.24,0.73752
2243.09,0.76363
2219.95,0.79442
2196.8,0.77959
2173.66,0.75030
2150.51,0.74095
2127.37,0.78657
2104.23,0.79875
2081.08,0.79403
2057.94,0.77338
2034.79,0.72987
2011.65,0.73155
1988.5,0.79388
1965.36,0.79073
1942.21,0.77563
1919.07,0.75813
1895.92,0.70798
1872.78,0.70279
1849.64,0.69737
1826.49,0.63410
1803.35,0.54877
1780.2,0.38451
1757.06,0.04964
1733.91,0.00098
1710.77,0.15135
1687.62,0.34259
1664.48,0.52543
1641.33,0.55153
1618.19,0.63652
1595.05,0.65342
1571.9,0.61566
1548.76,0.57667
1525.61,0.50775
1502.47,0.43068
1479.32,0.11048
1456.18,0.00105
1433.03,0.02302
1409.89,0.26675
1386.74,0.07648
1363.6,0.00241
1340.46,0.21881
1317.31,0.24320
1294.17,0.12610
1271.02,0.01594
1247.88,0.00005
1224.73,0.00054
1201.59,0.08974
1178.44,0.20700
1155.3,0.17943
1132.15,0.12124
1109.01,0.15733
1085.87,0.12580
1062.72,0.07538
1039.58,0.02475
1016.43,0.00120
993.287,0.20764
970.142,0.18250
946.998,0.17261
923.853,0.38571
900.709,0.48508
877.564,0.50308
854.42,0.53326
831.275,0.60358
808.131,0.58658
784.986,0.62433
761.842,0.56538
738.697,0.30820
715.552,0.04942
692.408,0.68150
669.263,0.62736
646.119,0.55372
622.974,0.54269
599.83,0.51892