File: 01_Data/PEVA/FTIR/IS/PEVA_0.18_IS_T_240809_R10.dpt
7497.33,0.02915
7474.19,0.03463
7451.04,0.04307
7427.9,0.02764
7404.75,0.03760
7381.6,0.02000
7358.46,0.03224
7335.31,0.03235
7312.17,0.03374
7289.02,0.02991
7265.87,0.03295
7242.73,0.04323
7219.58,0.03672
7196.44,0.02922
7173.29,0.03384
7150.15,0.02970
7127,0.03212
7103.85,0.03424
7080.71,0.04017
7057.56,0.03929
7034.42,0.03450
7011.27,0.02945
6988.12,0.03269
6964.98,0.03197
6941.83,0.03785
6918.69,0.03631
6895.54,0.03301
6872.39,0.03688
6849.25,0.02696
6826.1,0.03329
6802.96,0.02548
6779.81,0.03258
6756.67,0.03700
6733.52,0.03593
6710.37,0.03444
6687.23,0.03387
6664.08,0.03164
6640.94,0.02953
6617.79,0.03033
6594.64,0.03257
6571.5,0.02643
6548.35,0.02959
6525.21,0.02775
6502.06,0.03034
6478.92,0.02840
6455.77,0.03324
6432.62,0.03059
6409.48,0.03003
6386.33,0.03051
6363.19,0.03422
6340.04,0.03348
6316.89,0.03027
6293.75,0.02937
6270.6,0.02942
6247.46,0.02966
6224.31,0.03031
6201.16,0.02996
6178.02,0.03064
6154.87,0.03041
6131.73,0.02992
6108.58,0.03029
6085.44,0.02854
6062.29,0.03151
6039.14,0.03407
6016,0.03156
5992.85,0.03329
5969.71,0.03111
5946.56,0.02886
5923.41,0.03265
5900.27,0.02813
5877.12,0.03053
5853.98,0.02795
5830.83,0.03059
5807.68,0.03044
5784.54,0.03181
5761.39,0.03007
5738.25,0.03041
5715.1,0.02834
5691.96,0.02915
5668.81,0.02893
5645.66,0.03222
5622.52,0.02940
5599.37,0.03072
5576.23,0.03055
5553.08,0.03018
5529.93,0.02991
5506.79,0.03119
5483.64,0.03248
5460.5,0.03027
5437.35,0.03202
5414.21,0.03184
5391.06,0.03320
5367.91,0.03047
5344.77,0.03097
5321.62,0.03126
5298.48,0.03122
5275.33,0.03077
5252.18,0.03043
5229.04,0.03017
5205.89,0.02868
5182.75,0.03038
5159.6,0.02990
5136.45,0.03156
5113.31,0.03080
5090.16,0.03233
5067.02,0.03028
5043.87,0.03051
5020.73,0.03027
4997.58,0.03154
4974.43,0.03093
4951.29,0.03107
4928.14,0.02946
4905,0.03159
4881.85,0.03144
4858.7,0.03078
4835.56,0.03112
4812.41,0.02965
4789.27,0.03017
4766.12,0.03093
4742.97,0.03056
4719.83,0.03083
4696.68,0.03128
4673.54,0.03098
4650.39,0.03080
4627.25,0.03016
4604.1,0.02984
4580.95,0.03079
4557.81,0.03060
4534.66,0.03080
4511.52,0.03105
4488.37,0.03037
4465.22,0.03115
4442.08,0.03088
4418.93,0.03066
4395.79,0.03100
4372.64,0.03012
4349.49,0.02945
4326.35,0.02995
4303.2,0.03135
4280.06,0.03027
4256.91,0.03023
4233.77,0.03088
4210.62,0.03069
4187.47,0.03013
4164.33,0.03091
4141.18,0.03018
4118.04,0.03121
4094.89,0.03039
4071.74,0.03043
4048.6,0.03051
4025.45,0.03094
4002.31,0.03007
3979.16,0.03009
3956.02,0.03069
3932.87,0.03061
3909.72,0.03066
3886.58,0.03081
3863.43,0.03038
3840.29,0.03186
3817.14,0.03024
3793.99,0.03065
3770.85,0.03108
3747.7,0.03052
3724.56,0.03119
3701.41,0.02991
3678.26,0.03053
3655.12,0.02996
3631.97,0.02936
3608.83,0.02873
3585.68,0.02766
3562.54,0.02766
3539.39,0.02743
3516.24,0.02637
3493.1,0.02721
3469.95,0.02709
3446.81,0.02704
3423.66,0.02798
3400.51,0.02632
3377.37,0.02635
3354.22,0.02671
3331.08,0.02636
3307.93,0.02631
3284.78,0.02601
3261.64,0.02751
3238.49,0.02648
3215.35,0.02734
3192.2,0.02730
3169.06,0.02771
3145.91,0.02786
3122.76,0.02761
3099.62,0.02687
3076.47,0.02685
3053.33,0.02715
3030.18,0.02654
3007.03,0.02679
2983.89,0.02659
2960.74,0.02570
2937.6,0.02586
2914.45,0.02658
2891.31,0.02712
2868.16,0.02699
2845.01,0.02740
2821.87,0.02783
2798.72,0.02785
2775.58,0.02768
2752.43,0.02811
2729.28,0.02792
2706.14,0.02793
2682.99,0.02788
2659.85,0.02728
2636.7,0.02731
2613.55,0.02806
2590.41,0.02779
2567.26,0.02790
2544.12,0.02761
2520.97,0.02748
2497.83,0.02747
2474.68,0.02780
2451.53,0.02765
2428.39,0.02709
2405.24,0.02765
2382.1,0.02747
2358.95,0.02744
2335.8,0.02761
2312.66,0.02718
2289.51,0.02730
2266.37,0.02706
2243.22,0.02685
2220.07,0.02676
2196.93,0.02682
2173.78,0.02660
2150.64,0.02672
2127.49,0.02643
2104.35,0.02666
2081.2,0.02593
2058.05,0.02655
2034.91,0.02647
2011.76,0.02634
1988.62,0.02619
1965.47,0.02639
1942.32,0.02584
1919.18,0.02582
1896.03,0.02548
1872.89,0.02574
1849.74,0.02523
1826.6,0.02479
1803.45,0.02468
1780.3,0.02371
1757.16,0.02264
1734.01,0.02347
1710.87,0.02429
1687.72,0.02300
1664.57,0.02230
1641.43,0.02249
1618.28,0.02249
1595.14,0.02274
1571.99,0.02179
1548.84,0.02194
1525.7,0.02281
1502.55,0.02260
1479.41,0.02208
1456.26,0.02139
1433.12,0.02160
1409.97,0.02157
1386.82,0.02120
1363.68,0.02089
1340.53,0.02083
1317.39,0.02032
1294.24,0.02053
1271.09,0.02197
1247.95,0.02299
1224.8,0.02254
1201.66,0.02109
1178.51,0.02126
1155.36,0.02047
1132.22,0.02104
1109.07,0.02182
1085.93,0.02186
1062.78,0.02508
1039.64,0.02437
1016.49,0.02275
993.344,0.02452
970.198,0.02410
947.052,0.02325
923.906,0.02279
900.76,0.02228
877.614,0.02167
854.468,0.02236
831.323,0.02189
808.177,0.02139
785.031,0.02093
761.885,0.02029
738.739,0.01949
715.593,0.01945
692.447,0.01867
669.301,0.01800
646.156,0.01761
623.01,0.01809
599.864,0.02072