File: 01_Data/PEVA/FTIR/IS/PEVA_0.18_IS_Trans_T_240819_R1.dpt
7496.91,0.00800
7473.76,0.00994
7450.62,0.02289
7427.47,-0.00141
7404.33,0.02438
7381.18,0.01498
7358.04,0.02539
7334.89,0.00862
7311.75,0.00791
7288.61,0.01789
7265.46,0.01481
7242.32,0.01153
7219.17,0.01181
7196.03,0.00671
7172.88,0.00313
7149.74,0.01143
7126.59,0.01972
7103.45,0.02465
7080.3,0.01473
7057.16,0.00791
7034.02,0.01669
7010.87,0.00734
6987.73,0.00619
6964.58,0.00346
6941.44,0.00533
6918.29,0.01609
6895.15,0.00932
6872,0.00878
6848.86,0.00764
6825.71,0.00636
6802.57,0.01802
6779.43,0.02109
6756.28,0.01786
6733.14,0.00904
6709.99,0.02217
6686.85,0.01825
6663.7,0.01215
6640.56,0.00066
6617.41,0.00458
6594.27,0.00797
6571.12,0.01468
6547.98,0.00999
6524.84,0.01472
6501.69,0.00947
6478.55,0.01198
6455.4,0.00481
6432.26,0.00936
6409.11,0.00465
6385.97,0.01247
6362.82,0.00836
6339.68,0.00527
6316.53,0.01183
6293.39,0.01031
6270.24,-0.00092
6247.1,0.00948
6223.96,0.01036
6200.81,0.00464
6177.67,0.00692
6154.52,0.00780
6131.38,0.00696
6108.23,0.00539
6085.09,0.00193
6061.94,0.00680
6038.8,0.00526
6015.65,0.00062
5992.51,0.00290
5969.37,0.00694
5946.22,0.00861
5923.08,0.00731
5899.93,0.00368
5876.79,0.00404
5853.64,0.00376
5830.5,0.00548
5807.35,0.00333
5784.21,0.00573
5761.06,0.00781
5737.92,0.00602
5714.78,0.00576
5691.63,0.00634
5668.49,0.00196
5645.34,0.00598
5622.2,0.00521
5599.05,0.00453
5575.91,0.00425
5552.76,0.00423
5529.62,0.00431
5506.47,0.00148
5483.33,0.00338
5460.19,0.00310
5437.04,0.00223
5413.9,0.00110
5390.75,0.00196
5367.61,-0.00064
5344.46,0.00026
5321.32,0.00412
5298.17,0.00116
5275.03,0.00252
5251.88,0.00145
5228.74,0.00274
5205.6,0.00296
5182.45,0.00312
5159.31,0.00206
5136.16,0.00170
5113.02,0.00192
5089.87,-0.00027
5066.73,0.00288
5043.58,0.00261
5020.44,0.00411
4997.29,0.00376
4974.15,0.00241
4951.01,0.00006
4927.86,0.00250
4904.72,0.00135
4881.57,0.00006
4858.43,0.00073
4835.28,0.00133
4812.14,0.00288
4788.99,0.00278
4765.85,0.00172
4742.7,0.00204
4719.56,0.00002
4696.42,0.00233
4673.27,0.00118
4650.13,0.00143
4626.98,0.00149
4603.84,-0.00053
4580.69,0.00107
4557.55,0.00174
4534.4,0.00296
4511.26,0.00138
4488.11,0.00150
4464.97,0.00101
4441.83,0.00157
4418.68,0.00105
4395.54,0.00024
4372.39,0.00206
4349.25,0.00047
4326.1,0.00214
4302.96,0.00054
4279.81,0.00157
4256.67,0.00150
4233.52,0.00194
4210.38,0.00249
4187.24,0.00098
4164.09,0.00058
4140.95,0.00021
4117.8,0.00141
4094.66,0.00057
4071.51,0.00199
4048.37,0.00102
4025.22,0.00153
4002.08,0.00182
3978.93,0.00065
3955.79,0.00223
3932.65,0.00217
3909.5,0.00084
3886.36,0.00184
3863.21,0.00013
3840.07,0.00303
3816.92,0.00157
3793.78,0.00014
3770.63,0.00246
3747.49,0.00120
3724.34,0.00166
3701.2,0.00113
3678.06,0.00207
3654.91,0.00110
3631.77,0.00180
3608.62,0.00060
3585.48,0.00063
3562.33,0.00070
3539.19,0.00093
3516.04,0.00096
3492.9,0.00100
3469.75,0.00156
3446.61,0.00193
3423.47,0.00118
3400.32,0.00073
3377.18,0.00306
3354.03,0.00114
3330.89,0.00162
3307.74,0.00066
3284.6,0.00129
3261.45,-0.00017
3238.31,0.00295
3215.16,0.00035
3192.02,0.00170
3168.87,0.00153
3145.73,0.00151
3122.59,0.00100
3099.44,0.00090
3076.3,0.00097
3053.15,0.00033
3030.01,0.00106
3006.86,0.00035
2983.72,0.00111
2960.57,0.00066
2937.43,0.00075
2914.28,0.00098
2891.14,0.00040
2868,0.00091
2844.85,0.00079
2821.71,0.00121
2798.56,0.00107
2775.42,0.00050
2752.27,0.00056
2729.13,0.00116
2705.98,0.00033
2682.84,0.00048
2659.69,0.00061
2636.55,0.00040
2613.41,0.00071
2590.26,0.00036
2567.12,0.00049
2543.97,0.00019
2520.83,0.00088
2497.68,0.00017
2474.54,0.00041
2451.39,0.00080
2428.25,0.00064
2405.1,0.00012
2381.96,0.00079
2358.82,0.00108
2335.67,0.00130
2312.53,0.00091
2289.38,0.00060
2266.24,0.00076
2243.09,0.00028
2219.95,0.00035
2196.8,0.00050
2173.66,0.00051
2150.51,0.00023
2127.37,0.00082
2104.23,0.00123
2081.08,0.00033
2057.94,0.00026
2034.79,0.00046
2011.65,0.00028
1988.5,0.00051
1965.36,0.00042
1942.21,0.00021
1919.07,0.00059
1895.92,0.00036
1872.78,0.00046
1849.64,0.00044
1826.49,0.00081
1803.35,0.00025
1780.2,0.00069
1757.06,0.00038
1733.91,0.00061
1710.77,0.00053
1687.62,0.00115
1664.48,0.00021
1641.33,0.00037
1618.19,0.00089
1595.05,0.00060
1571.9,0.00146
1548.76,0.00043
1525.61,0.00090
1502.47,0.00071
1479.32,0.00048
1456.18,0.00126
1433.03,0.00064
1409.89,0.00061
1386.74,0.00034
1363.6,0.00076
1340.46,-0.00013
1317.31,0.00068
1294.17,0.00033
1271.02,0.00040
1247.88,0.00042
1224.73,0.00034
1201.59,0.00045
1178.44,0.00046
1155.3,0.00083
1132.15,0.00024
1109.01,0.00021
1085.87,0.00119
1062.72,0.00091
1039.58,0.00148
1016.43,0.00127
993.287,0.00078
970.142,0.00159
946.998,0.00076
923.853,0.00130
900.709,0.00121
877.564,0.00130
854.42,0.00018
831.275,0.00085
808.131,0.00185
784.986,0.00204
761.842,0.00135
738.697,0.00102
715.552,0.00140
692.408,0.00109
669.263,0.00096
646.119,0.00387
622.974,0.00333
599.83,0.00146