File: 01_Data/PEVA/FTIR/IS/PEVA_0.10_IS_S_240808_R2.dpt
7496.93,0.09862
7473.78,0.09720
7450.64,0.10048
7427.49,0.08943
7404.35,0.10485
7381.2,0.10195
7358.06,0.08376
7334.91,0.10775
7311.77,0.08896
7288.62,0.09533
7265.48,0.09735
7242.34,0.08613
7219.19,0.09524
7196.05,0.10067
7172.9,0.09388
7149.76,0.08692
7126.61,0.09783
7103.47,0.10322
7080.32,0.09775
7057.18,0.09418
7034.03,0.10049
7010.89,0.09720
6987.74,0.10116
6964.6,0.10232
6941.46,0.09219
6918.31,0.09665
6895.17,0.09642
6872.02,0.09546
6848.88,0.09353
6825.73,0.09113
6802.59,0.09155
6779.44,0.09812
6756.3,0.09399
6733.15,0.09592
6710.01,0.09529
6686.86,0.09848
6663.72,0.09431
6640.58,0.09036
6617.43,0.09588
6594.29,0.08758
6571.14,0.09863
6548,0.09599
6524.85,0.09467
6501.71,0.09626
6478.56,0.09929
6455.42,0.09973
6432.27,0.09916
6409.13,0.09638
6385.98,0.09743
6362.84,0.09173
6339.7,0.09736
6316.55,0.09781
6293.41,0.09890
6270.26,0.09717
6247.12,0.09646
6223.97,0.09707
6200.83,0.09896
6177.68,0.09769
6154.54,0.09475
6131.39,0.09802
6108.25,0.09617
6085.1,0.09611
6061.96,0.09835
6038.82,0.09466
6015.67,0.09634
5992.53,0.09389
5969.38,0.09820
5946.24,0.09605
5923.09,0.09885
5899.95,0.09375
5876.8,0.09840
5853.66,0.09201
5830.51,0.09059
5807.37,0.09100
5784.22,0.08630
5761.08,0.09043
5737.94,0.09424
5714.79,0.09468
5691.65,0.09284
5668.5,0.09152
5645.36,0.09332
5622.21,0.09537
5599.07,0.09420
5575.92,0.09463
5552.78,0.09731
5529.63,0.09329
5506.49,0.09382
5483.34,0.09656
5460.2,0.09415
5437.06,0.09661
5413.91,0.09411
5390.77,0.09787
5367.62,0.09849
5344.48,0.09773
5321.33,0.09693
5298.19,0.09632
5275.04,0.09751
5251.9,0.09842
5228.75,0.09716
5205.61,0.09584
5182.46,0.09850
5159.32,0.09874
5136.18,0.09850
5113.03,0.09715
5089.89,0.09955
5066.74,0.09775
5043.6,0.09853
5020.45,0.09672
4997.31,0.09892
4974.16,0.09742
4951.02,0.09932
4927.87,0.09891
4904.73,0.09838
4881.58,0.09859
4858.44,0.09806
4835.3,0.09874
4812.15,0.09851
4789.01,0.09990
4765.86,0.09970
4742.72,0.09883
4719.57,0.10045
4696.43,0.09965
4673.28,0.10090
4650.14,0.10002
4626.99,0.10092
4603.85,0.09987
4580.7,0.10010
4557.56,0.10116
4534.42,0.09836
4511.27,0.09924
4488.13,0.09946
4464.98,0.09861
4441.84,0.09764
4418.69,0.09555
4395.55,0.09195
4372.4,0.08827
4349.26,0.08032
4326.11,0.06727
4302.97,0.08419
4279.82,0.08373
4256.68,0.07206
4233.54,0.08080
4210.39,0.07895
4187.25,0.07557
4164.1,0.07674
4140.96,0.07632
4117.81,0.07751
4094.67,0.07810
4071.52,0.08263
4048.38,0.08524
4025.23,0.08701
4002.09,0.08888
3978.94,0.09040
3955.8,0.09019
3932.66,0.08877
3909.51,0.08909
3886.37,0.09014
3863.22,0.08866
3840.08,0.09076
3816.93,0.09100
3793.79,0.09159
3770.64,0.09240
3747.5,0.09384
3724.35,0.09250
3701.21,0.09318
3678.06,0.09150
3654.92,0.08953
3631.78,0.09053
3608.63,0.08470
3585.49,0.09212
3562.34,0.09524
3539.2,0.09575
3516.05,0.09598
3492.91,0.09575
3469.76,0.09469
3446.62,0.09337
3423.47,0.09431
3400.33,0.09366
3377.18,0.09178
3354.04,0.09317
3330.9,0.09324
3307.75,0.09283
3284.61,0.09364
3261.46,0.09411
3238.32,0.09148
3215.17,0.09158
3192.03,0.09244
3168.88,0.08944
3145.74,0.08642
3122.59,0.08552
3099.45,0.08055
3076.3,0.07310
3053.16,0.06788
3030.02,0.06171
3006.87,0.05811
2983.73,0.05106
2960.58,0.04701
2937.44,0.03898
2914.29,0.08783
2891.15,0.06875
2868,0.05867
2844.86,0.08416
2821.71,0.06792
2798.57,0.06652
2775.42,0.06980
2752.28,0.07335
2729.14,0.07273
2705.99,0.07377
2682.85,0.07382
2659.7,0.07341
2636.56,0.07225
2613.41,0.07640
2590.27,0.08306
2567.12,0.08820
2543.98,0.08812
2520.83,0.09167
2497.69,0.09605
2474.55,0.09402
2451.4,0.09659
2428.26,0.09788
2405.11,0.09451
2381.97,0.09544
2358.82,0.09430
2335.68,0.08828
2312.53,0.09203
2289.39,0.09578
2266.24,0.09431
2243.1,0.09642
2219.95,0.09946
2196.81,0.09630
2173.67,0.09800
2150.52,0.09819
2127.38,0.09652
2104.23,0.10009
2081.09,0.09987
2057.94,0.09482
2034.8,0.09564
2011.65,0.09545
1988.51,0.09648
1965.36,0.10116
1942.22,0.09868
1919.07,0.09444
1895.93,0.09767
1872.79,0.09863
1849.64,0.09623
1826.5,0.10186
1803.35,0.09620
1780.21,0.09411
1757.06,0.09822
1733.92,0.09075
1710.77,0.09031
1687.63,0.10078
1664.48,0.09100
1641.34,0.08948
1618.19,0.09832
1595.05,0.08770
1571.91,0.08736
1548.76,0.09521
1525.62,0.08489
1502.47,0.07328
1479.33,0.05648
1456.18,0.06094
1433.04,0.06427
1409.89,0.07759
1386.75,0.07494
1363.6,0.07111
1340.46,0.07057
1317.31,0.07241
1294.17,0.08259
1271.03,0.07502
1247.88,0.08218
1224.74,0.09848
1201.59,0.08028
1178.45,0.08290
1155.3,0.09900
1132.16,0.07800
1109.01,0.08771
1085.87,0.10101
1062.72,0.07780
1039.58,0.09337
1016.43,0.10616
993.29,0.07796
970.145,0.09840
947,0.10929
923.856,0.07195
900.711,0.10360
877.567,0.10897
854.422,0.06671
831.277,0.10717
808.133,0.10712
784.988,0.05815
761.844,0.09085
738.699,0.08327
715.554,0.06843
692.41,0.11782
669.265,0.06251
646.12,0.09038
622.976,0.14294
599.831,0.06010