File: 01_Data/PEVA/FTIR/IS/PEVA_0.10_IS_Trans_S_240819_R2.dpt
7496.91,0.93822
7473.76,0.94288
7450.62,0.93474
7427.47,0.94925
7404.33,0.94021
7381.18,0.94311
7358.04,0.93376
7334.89,0.94143
7311.75,0.92887
7288.61,0.94281
7265.46,0.92752
7242.32,0.92829
7219.17,0.92225
7196.03,0.92468
7172.88,0.92843
7149.74,0.92452
7126.59,0.93189
7103.45,0.93406
7080.3,0.92947
7057.16,0.91667
7034.02,0.93522
7010.87,0.92083
6987.73,0.93396
6964.58,0.91969
6941.44,0.93069
6918.29,0.93326
6895.15,0.93400
6872,0.93507
6848.86,0.92440
6825.71,0.93598
6802.57,0.93607
6779.43,0.93123
6756.28,0.93494
6733.14,0.93939
6709.99,0.94153
6686.85,0.93938
6663.7,0.93880
6640.56,0.93417
6617.41,0.93987
6594.27,0.94175
6571.12,0.94016
6547.98,0.93813
6524.84,0.92962
6501.69,0.93248
6478.55,0.94355
6455.4,0.94024
6432.26,0.93944
6409.11,0.94452
6385.97,0.94247
6362.82,0.94750
6339.68,0.94167
6316.53,0.93803
6293.39,0.94137
6270.24,0.94054
6247.1,0.93887
6223.96,0.94189
6200.81,0.93588
6177.67,0.93983
6154.52,0.93766
6131.38,0.93380
6108.23,0.93150
6085.09,0.93570
6061.94,0.93165
6038.8,0.92803
6015.65,0.93135
5992.51,0.92802
5969.37,0.92427
5946.22,0.93084
5923.08,0.92451
5899.93,0.92118
5876.79,0.90888
5853.64,0.89343
5830.5,0.87040
5807.35,0.84503
5784.21,0.79348
5761.06,0.82718
5737.92,0.87227
5714.78,0.89167
5691.63,0.87726
5668.49,0.85107
5645.34,0.88335
5622.2,0.89320
5599.05,0.89803
5575.91,0.90119
5552.76,0.89423
5529.62,0.89570
5506.47,0.89664
5483.33,0.89800
5460.19,0.89602
5437.04,0.90145
5413.9,0.89603
5390.75,0.90972
5367.61,0.91178
5344.46,0.90371
5321.32,0.91905
5298.17,0.91814
5275.03,0.91594
5251.88,0.91359
5228.74,0.91209
5205.6,0.90835
5182.45,0.91707
5159.31,0.91593
5136.16,0.91834
5113.02,0.92098
5089.87,0.91945
5066.73,0.91900
5043.58,0.92302
5020.44,0.92100
4997.29,0.92045
4974.15,0.92066
4951.01,0.91945
4927.86,0.92023
4904.72,0.92347
4881.57,0.91835
4858.43,0.92228
4835.28,0.92468
4812.14,0.92340
4788.99,0.92679
4765.85,0.92921
4742.7,0.92664
4719.56,0.92913
4696.42,0.93127
4673.27,0.92625
4650.13,0.93091
4626.98,0.92969
4603.84,0.92710
4580.69,0.92834
4557.55,0.92577
4534.4,0.92215
4511.26,0.92174
4488.11,0.91793
4464.97,0.90999
4441.83,0.90134
4418.68,0.88207
4395.54,0.83910
4372.39,0.78576
4349.25,0.67367
4326.1,0.40504
4302.96,0.72387
4279.81,0.71278
4256.67,0.53311
4233.52,0.67411
4210.38,0.64361
4187.24,0.58758
4164.09,0.59801
4140.95,0.60735
4117.8,0.62028
4094.66,0.62373
4071.51,0.70006
4048.37,0.73262
4025.22,0.74503
4002.08,0.79009
3978.93,0.78697
3955.79,0.79677
3932.65,0.78088
3909.5,0.78041
3886.36,0.77590
3863.21,0.78118
3840.07,0.77731
3816.92,0.78512
3793.78,0.82053
3770.63,0.82170
3747.49,0.80620
3724.34,0.81949
3701.2,0.81949
3678.06,0.80593
3654.91,0.79986
3631.77,0.80104
3608.62,0.74804
3585.48,0.84616
3562.33,0.87357
3539.19,0.89346
3516.04,0.89741
3492.9,0.89142
3469.75,0.88664
3446.61,0.87571
3423.47,0.87434
3400.32,0.87501
3377.18,0.86848
3354.03,0.86952
3330.89,0.87767
3307.74,0.88016
3284.6,0.87755
3261.45,0.87730
3238.31,0.87644
3215.16,0.86469
3192.02,0.85129
3168.87,0.84248
3145.73,0.82773
3122.59,0.79807
3099.44,0.72688
3076.3,0.62214
3053.15,0.54676
3030.01,0.42811
3006.86,0.32480
2983.72,0.14543
2960.57,0.00147
2937.43,0.00075
2914.28,0.00052
2891.14,0.00068
2868,0.00110
2844.85,0.00041
2821.71,0.04186
2798.56,0.17882
2775.42,0.35834
2752.27,0.44376
2729.13,0.45657
2705.98,0.50727
2682.84,0.48972
2659.69,0.46704
2636.55,0.48035
2613.41,0.57199
2590.26,0.64615
2567.12,0.71645
2543.97,0.75623
2520.83,0.77846
2497.68,0.81511
2474.54,0.82760
2451.39,0.85218
2428.25,0.84262
2405.1,0.83869
2381.96,0.83142
2358.82,0.73395
2335.67,0.70891
2312.53,0.76974
2289.38,0.82231
2266.24,0.84567
2243.09,0.85518
2219.95,0.87200
2196.8,0.87223
2173.66,0.87451
2150.51,0.86283
2127.37,0.88186
2104.23,0.89162
2081.08,0.88616
2057.94,0.86674
2034.79,0.84365
2011.65,0.84155
1988.5,0.88265
1965.36,0.89081
1942.21,0.88136
1919.07,0.86548
1895.92,0.84897
1872.78,0.89127
1849.64,0.89218
1826.49,0.89131
1803.35,0.88384
1780.2,0.87701
1757.06,0.85908
1733.91,0.80904
1710.77,0.80860
1687.62,0.86062
1664.48,0.85226
1641.33,0.83222
1618.19,0.83762
1595.05,0.82339
1571.9,0.81263
1548.76,0.80833
1525.61,0.75453
1502.47,0.67794
1479.32,0.28497
1456.18,0.02109
1433.03,0.31303
1409.89,0.70591
1386.74,0.66405
1363.6,0.41572
1340.46,0.58999
1317.31,0.61727
1294.17,0.59509
1271.02,0.66524
1247.88,0.72878
1224.73,0.75987
1201.59,0.76154
1178.44,0.75786
1155.3,0.75822
1132.15,0.77159
1109.01,0.77884
1085.87,0.72816
1062.72,0.75952
1039.58,0.78210
1016.43,0.71589
993.287,0.82508
970.142,0.81762
946.998,0.82969
923.853,0.85427
900.709,0.84078
877.564,0.84302
854.42,0.86227
831.275,0.84082
808.131,0.81855
784.986,0.79115
761.842,0.72610
738.697,0.50990
715.552,0.13467
692.408,0.79095
669.263,0.85344
646.119,0.90200
622.974,0.88313
599.83,0.94432