File: 01_Data/PEVA/FTIR/IS/PEVA_0.26_IS_Trans_T_240819_R2.dpt
7496.91,0.02591
7473.76,0.01636
7450.62,0.01998
7427.47,0.02527
7404.33,0.01592
7381.18,0.02231
7358.04,0.03755
7334.89,0.01997
7311.75,0.02593
7288.61,0.01896
7265.46,0.01136
7242.32,0.03510
7219.17,0.01462
7196.03,0.01983
7172.88,0.00966
7149.74,0.02584
7126.59,0.01540
7103.45,0.01093
7080.3,0.01427
7057.16,0.00891
7034.02,0.01665
7010.87,0.01049
6987.73,0.01182
6964.58,0.00186
6941.44,0.00288
6918.29,0.00564
6895.15,0.01587
6872,0.00309
6848.86,0.00885
6825.71,0.00563
6802.57,0.01174
6779.43,0.01015
6756.28,0.00334
6733.14,0.01104
6709.99,0.01297
6686.85,0.01150
6663.7,0.01283
6640.56,0.00998
6617.41,0.00551
6594.27,0.00112
6571.12,0.01319
6547.98,0.00916
6524.84,0.00800
6501.69,0.01834
6478.55,0.00665
6455.4,0.01433
6432.26,0.00581
6409.11,0.01758
6385.97,0.00893
6362.82,0.00107
6339.68,0.00688
6316.53,0.00604
6293.39,0.00110
6270.24,0.00855
6247.1,0.01085
6223.96,0.00549
6200.81,0.00176
6177.67,0.01056
6154.52,0.00500
6131.38,0.00655
6108.23,0.00123
6085.09,0.00644
6061.94,0.00656
6038.8,0.00555
6015.65,0.00415
5992.51,-0.00096
5969.37,0.00994
5946.22,0.00484
5923.08,0.00333
5899.93,0.00706
5876.79,0.00608
5853.64,0.00426
5830.5,0.00473
5807.35,0.00212
5784.21,0.00431
5761.06,0.00646
5737.92,-0.00016
5714.78,0.00614
5691.63,0.00241
5668.49,0.00362
5645.34,0.00528
5622.2,0.00243
5599.05,0.00006
5575.91,0.00365
5552.76,0.00269
5529.62,0.00651
5506.47,0.00167
5483.33,0.00261
5460.19,0.00156
5437.04,0.00304
5413.9,0.00239
5390.75,0.00214
5367.61,0.00377
5344.46,0.00105
5321.32,0.00100
5298.17,0.00265
5275.03,0.00173
5251.88,0.00279
5228.74,0.00303
5205.6,0.00212
5182.45,0.00152
5159.31,0.00167
5136.16,0.00374
5113.02,0.00279
5089.87,0.00350
5066.73,0.00179
5043.58,0.00217
5020.44,0.00015
4997.29,0.00152
4974.15,0.00049
4951.01,0.00243
4927.86,0.00202
4904.72,0.00248
4881.57,0.00216
4858.43,0.00301
4835.28,0.00253
4812.14,0.00167
4788.99,0.00122
4765.85,0.00145
4742.7,0.00119
4719.56,0.00076
4696.42,0.00170
4673.27,0.00291
4650.13,0.00141
4626.98,0.00153
4603.84,0.00061
4580.69,0.00120
4557.55,0.00136
4534.4,0.00044
4511.26,0.00184
4488.11,0.00340
4464.97,0.00107
4441.83,0.00329
4418.68,0.00053
4395.54,0.00092
4372.39,0.00058
4349.25,0.00127
4326.1,0.00229
4302.96,0.00261
4279.81,0.00246
4256.67,0.00085
4233.52,0.00048
4210.38,0.00056
4187.24,0.00122
4164.09,0.00149
4140.95,0.00139
4117.8,0.00092
4094.66,0.00063
4071.51,0.00079
4048.37,0.00092
4025.22,-0.00006
4002.08,0.00066
3978.93,0.00074
3955.79,0.00055
3932.65,0.00106
3909.5,0.00083
3886.36,0.00152
3863.21,0.00060
3840.07,0.00205
3816.92,0.00164
3793.78,0.00166
3770.63,0.00131
3747.49,0.00144
3724.34,0.00027
3701.2,0.00138
3678.06,0.00167
3654.91,0.00280
3631.77,0.00137
3608.62,0.00204
3585.48,0.00177
3562.33,0.00087
3539.19,0.00034
3516.04,0.00101
3492.9,0.00039
3469.75,0.00275
3446.61,0.00116
3423.47,0.00048
3400.32,0.00198
3377.18,0.00137
3354.03,0.00028
3330.89,0.00122
3307.74,0.00157
3284.6,0.00080
3261.45,0.00073
3238.31,0.00220
3215.16,0.00183
3192.02,0.00050
3168.87,0.00024
3145.73,0.00029
3122.59,0.00095
3099.44,0.00075
3076.3,0.00117
3053.15,0.00070
3030.01,0.00014
3006.86,0.00048
2983.72,0.00050
2960.57,0.00041
2937.43,0.00082
2914.28,0.00074
2891.14,0.00055
2868,0.00092
2844.85,0.00056
2821.71,0.00092
2798.56,0.00091
2775.42,0.00059
2752.27,0.00047
2729.13,0.00032
2705.98,0.00015
2682.84,0.00033
2659.69,0.00041
2636.55,0.00069
2613.41,0.00040
2590.26,0.00013
2567.12,0.00052
2543.97,0.00042
2520.83,0.00054
2497.68,0.00051
2474.54,0.00030
2451.39,0.00073
2428.25,0.00038
2405.1,0.00000
2381.96,0.00087
2358.82,0.00054
2335.67,0.00109
2312.53,0.00047
2289.38,0.00060
2266.24,0.00070
2243.09,0.00049
2219.95,0.00058
2196.8,0.00076
2173.66,0.00026
2150.51,0.00057
2127.37,0.00015
2104.23,0.00043
2081.08,0.00114
2057.94,0.00064
2034.79,0.00034
2011.65,0.00105
1988.5,0.00033
1965.36,0.00053
1942.21,0.00054
1919.07,0.00067
1895.92,0.00031
1872.78,0.00067
1849.64,0.00042
1826.49,0.00062
1803.35,0.00059
1780.2,0.00042
1757.06,0.00023
1733.91,0.00057
1710.77,0.00074
1687.62,0.00092
1664.48,0.00069
1641.33,0.00052
1618.19,0.00053
1595.05,0.00032
1571.9,-0.00002
1548.76,0.00120
1525.61,0.00092
1502.47,0.00097
1479.32,0.00083
1456.18,0.00117
1433.03,0.00054
1409.89,0.00046
1386.74,0.00059
1363.6,0.00035
1340.46,0.00061
1317.31,0.00032
1294.17,0.00030
1271.02,0.00014
1247.88,0.00061
1224.73,0.00028
1201.59,0.00099
1178.44,0.00035
1155.3,0.00060
1132.15,0.00023
1109.01,0.00036
1085.87,0.00121
1062.72,0.00040
1039.58,0.00047
1016.43,0.00113
993.287,0.00132
970.142,0.00062
946.998,0.00094
923.853,0.00053
900.709,0.00102
877.564,0.00143
854.42,0.00127
831.275,0.00113
808.131,0.00103
784.986,0.00149
761.842,0.00059
738.697,0.00050
715.552,0.00070
692.408,0.00163
669.263,0.00123
646.119,0.00228
622.974,-0.00083
599.83,0.00249