File: 01_Data/PEVA/FTIR/IS/PEVA_0.10_IS_T_240808_R8.dpt
7496.93,0.03318
7473.78,0.02058
7450.64,0.03696
7427.49,0.03349
7404.35,0.04430
7381.2,0.03278
7358.06,0.04168
7334.91,0.04093
7311.77,0.02773
7288.62,0.03761
7265.48,0.03131
7242.34,0.02883
7219.19,0.02521
7196.05,0.02544
7172.9,0.03113
7149.76,0.03340
7126.61,0.03035
7103.47,0.03124
7080.32,0.03074
7057.18,0.03417
7034.03,0.03722
7010.89,0.02956
6987.74,0.03502
6964.6,0.02843
6941.46,0.03404
6918.31,0.02776
6895.17,0.03934
6872.02,0.03964
6848.88,0.03027
6825.73,0.02883
6802.59,0.03299
6779.44,0.03174
6756.3,0.03342
6733.15,0.02609
6710.01,0.03466
6686.86,0.03482
6663.72,0.03181
6640.58,0.03548
6617.43,0.03411
6594.29,0.03299
6571.14,0.02792
6548,0.02919
6524.85,0.03098
6501.71,0.03872
6478.56,0.03483
6455.42,0.03074
6432.27,0.03019
6409.13,0.02981
6385.98,0.03001
6362.84,0.03014
6339.7,0.02786
6316.55,0.03120
6293.41,0.03334
6270.26,0.03092
6247.12,0.02999
6223.97,0.03111
6200.83,0.03265
6177.68,0.03069
6154.54,0.02919
6131.39,0.03585
6108.25,0.02856
6085.1,0.03078
6061.96,0.03039
6038.82,0.02938
6015.67,0.02956
5992.53,0.03223
5969.38,0.03140
5946.24,0.03098
5923.09,0.02690
5899.95,0.02728
5876.8,0.02724
5853.66,0.02728
5830.51,0.02813
5807.37,0.02851
5784.22,0.03001
5761.08,0.02854
5737.94,0.03083
5714.79,0.03014
5691.65,0.03038
5668.5,0.03054
5645.36,0.03261
5622.21,0.02892
5599.07,0.03034
5575.92,0.03008
5552.78,0.03051
5529.63,0.03050
5506.49,0.02753
5483.34,0.02868
5460.2,0.03070
5437.06,0.03030
5413.91,0.02793
5390.77,0.02951
5367.62,0.02993
5344.48,0.02967
5321.33,0.02819
5298.19,0.02968
5275.04,0.03096
5251.9,0.03050
5228.75,0.02931
5205.61,0.02961
5182.46,0.02949
5159.32,0.03023
5136.18,0.03111
5113.03,0.02917
5089.89,0.03135
5066.74,0.02975
5043.6,0.02885
5020.45,0.03027
4997.31,0.03005
4974.16,0.03069
4951.02,0.03030
4927.87,0.02928
4904.73,0.03011
4881.58,0.03034
4858.44,0.02898
4835.3,0.02885
4812.15,0.02962
4789.01,0.02949
4765.86,0.03105
4742.72,0.02968
4719.57,0.02907
4696.43,0.02996
4673.28,0.02963
4650.14,0.02895
4626.99,0.02951
4603.85,0.02970
4580.7,0.03037
4557.56,0.02858
4534.42,0.03066
4511.27,0.02980
4488.13,0.02956
4464.98,0.03077
4441.84,0.02919
4418.69,0.02871
4395.55,0.02931
4372.4,0.02984
4349.26,0.02929
4326.11,0.02843
4302.97,0.02938
4279.82,0.02855
4256.68,0.02920
4233.54,0.02958
4210.39,0.02945
4187.25,0.02902
4164.1,0.02968
4140.96,0.03013
4117.81,0.02949
4094.67,0.02913
4071.52,0.02921
4048.38,0.02929
4025.23,0.02918
4002.09,0.02974
3978.94,0.03012
3955.8,0.02928
3932.66,0.02884
3909.51,0.02904
3886.37,0.02904
3863.22,0.02985
3840.08,0.02937
3816.93,0.02906
3793.79,0.02922
3770.64,0.02929
3747.5,0.02961
3724.35,0.02860
3701.21,0.02895
3678.06,0.02776
3654.92,0.02836
3631.78,0.02743
3608.63,0.02797
3585.49,0.02628
3562.34,0.02609
3539.2,0.02588
3516.05,0.02680
3492.91,0.02631
3469.76,0.02604
3446.62,0.02622
3423.47,0.02559
3400.33,0.02517
3377.18,0.02494
3354.04,0.02484
3330.9,0.02613
3307.75,0.02542
3284.61,0.02554
3261.46,0.02623
3238.32,0.02668
3215.17,0.02631
3192.03,0.02675
3168.88,0.02624
3145.74,0.02632
3122.59,0.02664
3099.45,0.02638
3076.3,0.02629
3053.16,0.02663
3030.02,0.02622
3006.87,0.02636
2983.73,0.02529
2960.58,0.02564
2937.44,0.02476
2914.29,0.02566
2891.15,0.02639
2868,0.02619
2844.86,0.02667
2821.71,0.02621
2798.57,0.02718
2775.42,0.02659
2752.28,0.02697
2729.14,0.02644
2705.99,0.02681
2682.85,0.02691
2659.7,0.02669
2636.56,0.02706
2613.41,0.02684
2590.27,0.02655
2567.12,0.02696
2543.98,0.02693
2520.83,0.02667
2497.69,0.02637
2474.55,0.02684
2451.4,0.02625
2428.26,0.02666
2405.11,0.02623
2381.97,0.02612
2358.82,0.02756
2335.68,0.02681
2312.53,0.02637
2289.39,0.02597
2266.24,0.02612
2243.1,0.02617
2219.95,0.02623
2196.81,0.02580
2173.67,0.02586
2150.52,0.02568
2127.38,0.02573
2104.23,0.02564
2081.09,0.02551
2057.94,0.02551
2034.8,0.02526
2011.65,0.02574
1988.51,0.02543
1965.36,0.02538
1942.22,0.02529
1919.07,0.02502
1895.93,0.02537
1872.79,0.02504
1849.64,0.02428
1826.5,0.02394
1803.35,0.02354
1780.21,0.02346
1757.06,0.02098
1733.92,0.02324
1710.77,0.02390
1687.63,0.02204
1664.48,0.02170
1641.34,0.02194
1618.19,0.02236
1595.05,0.02181
1571.91,0.02191
1548.76,0.02160
1525.62,0.02198
1502.47,0.02177
1479.33,0.02154
1456.18,0.02145
1433.04,0.02137
1409.89,0.02105
1386.75,0.02044
1363.6,0.02066
1340.46,0.02023
1317.31,0.01941
1294.17,0.02005
1271.03,0.02125
1247.88,0.02228
1224.74,0.02182
1201.59,0.02109
1178.45,0.02024
1155.3,0.01986
1132.16,0.02032
1109.01,0.02255
1085.87,0.02151
1062.72,0.02436
1039.58,0.02244
1016.43,0.02262
993.29,0.02378
970.145,0.02314
947,0.02263
923.856,0.02227
900.711,0.02199
877.567,0.02240
854.422,0.02172
831.277,0.02079
808.133,0.02055
784.988,0.02107
761.844,0.01967
738.699,0.02043
715.554,0.01894
692.41,0.01787
669.265,0.01794
646.12,0.01734
622.976,0.01951
599.831,0.01944