File: 01_Data/PEVA/FTIR/IS/PEVA_0.10_IS_T_240808_R3.dpt
7496.93,0.04155
7473.78,0.04451
7450.64,0.02211
7427.49,0.02892
7404.35,0.03704
7381.2,0.03027
7358.06,0.01869
7334.91,0.03532
7311.77,0.04921
7288.62,0.04041
7265.48,0.03745
7242.34,0.03463
7219.19,0.02044
7196.05,0.02852
7172.9,0.03407
7149.76,0.02842
7126.61,0.03320
7103.47,0.03388
7080.32,0.03365
7057.18,0.02785
7034.03,0.02303
7010.89,0.02786
6987.74,0.03151
6964.6,0.03411
6941.46,0.03288
6918.31,0.03261
6895.17,0.02912
6872.02,0.03588
6848.88,0.03503
6825.73,0.03339
6802.59,0.03303
6779.44,0.03097
6756.3,0.02191
6733.15,0.03411
6710.01,0.02706
6686.86,0.03274
6663.72,0.03206
6640.58,0.03794
6617.43,0.03434
6594.29,0.03467
6571.14,0.03446
6548,0.03132
6524.85,0.03312
6501.71,0.03182
6478.56,0.04072
6455.42,0.03290
6432.27,0.03189
6409.13,0.03000
6385.98,0.03011
6362.84,0.03053
6339.7,0.03197
6316.55,0.03805
6293.41,0.02820
6270.26,0.02744
6247.12,0.02848
6223.97,0.02822
6200.83,0.02395
6177.68,0.03077
6154.54,0.02841
6131.39,0.02363
6108.25,0.02960
6085.1,0.02966
6061.96,0.02657
6038.82,0.02974
6015.67,0.03150
5992.53,0.03244
5969.38,0.02783
5946.24,0.03111
5923.09,0.02686
5899.95,0.02951
5876.8,0.02730
5853.66,0.02890
5830.51,0.02980
5807.37,0.02871
5784.22,0.02834
5761.08,0.02639
5737.94,0.02701
5714.79,0.02844
5691.65,0.03040
5668.5,0.02639
5645.36,0.03091
5622.21,0.02923
5599.07,0.02954
5575.92,0.02893
5552.78,0.02976
5529.63,0.03035
5506.49,0.02703
5483.34,0.02995
5460.2,0.02966
5437.06,0.02788
5413.91,0.02657
5390.77,0.02984
5367.62,0.03008
5344.48,0.03076
5321.33,0.02984
5298.19,0.02762
5275.04,0.02656
5251.9,0.03088
5228.75,0.02922
5205.61,0.02891
5182.46,0.02960
5159.32,0.02963
5136.18,0.03055
5113.03,0.02808
5089.89,0.02909
5066.74,0.02979
5043.6,0.02906
5020.45,0.02965
4997.31,0.03015
4974.16,0.02965
4951.02,0.02841
4927.87,0.02934
4904.73,0.02937
4881.58,0.03031
4858.44,0.02976
4835.3,0.02944
4812.15,0.02942
4789.01,0.02804
4765.86,0.02990
4742.72,0.02986
4719.57,0.02935
4696.43,0.02949
4673.28,0.03025
4650.14,0.02966
4626.99,0.02868
4603.85,0.03010
4580.7,0.02995
4557.56,0.02913
4534.42,0.03044
4511.27,0.02874
4488.13,0.02827
4464.98,0.02917
4441.84,0.02832
4418.69,0.02979
4395.55,0.03044
4372.4,0.02899
4349.26,0.02899
4326.11,0.02900
4302.97,0.02944
4279.82,0.02896
4256.68,0.02999
4233.54,0.02864
4210.39,0.02919
4187.25,0.02835
4164.1,0.02940
4140.96,0.02865
4117.81,0.02889
4094.67,0.02882
4071.52,0.02998
4048.38,0.02989
4025.23,0.02922
4002.09,0.02999
3978.94,0.02922
3955.8,0.02899
3932.66,0.02867
3909.51,0.02930
3886.37,0.02998
3863.22,0.03002
3840.08,0.02958
3816.93,0.02844
3793.79,0.02916
3770.64,0.02951
3747.5,0.02866
3724.35,0.02902
3701.21,0.02812
3678.06,0.02857
3654.92,0.02818
3631.78,0.02777
3608.63,0.02730
3585.49,0.02578
3562.34,0.02583
3539.2,0.02559
3516.05,0.02574
3492.91,0.02536
3469.76,0.02627
3446.62,0.02628
3423.47,0.02502
3400.33,0.02592
3377.18,0.02613
3354.04,0.02490
3330.9,0.02543
3307.75,0.02622
3284.61,0.02531
3261.46,0.02604
3238.32,0.02555
3215.17,0.02552
3192.03,0.02606
3168.88,0.02612
3145.74,0.02653
3122.59,0.02642
3099.45,0.02631
3076.3,0.02622
3053.16,0.02620
3030.02,0.02583
3006.87,0.02530
2983.73,0.02545
2960.58,0.02472
2937.44,0.02516
2914.29,0.02558
2891.15,0.02655
2868,0.02593
2844.86,0.02584
2821.71,0.02652
2798.57,0.02664
2775.42,0.02716
2752.28,0.02682
2729.14,0.02668
2705.99,0.02674
2682.85,0.02639
2659.7,0.02637
2636.56,0.02651
2613.41,0.02639
2590.27,0.02631
2567.12,0.02642
2543.98,0.02651
2520.83,0.02586
2497.69,0.02613
2474.55,0.02676
2451.4,0.02609
2428.26,0.02649
2405.11,0.02626
2381.97,0.02569
2358.82,0.02738
2335.68,0.02576
2312.53,0.02619
2289.39,0.02606
2266.24,0.02610
2243.1,0.02548
2219.95,0.02548
2196.81,0.02522
2173.67,0.02554
2150.52,0.02563
2127.38,0.02524
2104.23,0.02535
2081.09,0.02507
2057.94,0.02499
2034.8,0.02511
2011.65,0.02511
1988.51,0.02497
1965.36,0.02484
1942.22,0.02481
1919.07,0.02469
1895.93,0.02447
1872.79,0.02459
1849.64,0.02445
1826.5,0.02356
1803.35,0.02321
1780.21,0.02269
1757.06,0.02147
1733.92,0.02295
1710.77,0.02371
1687.63,0.02209
1664.48,0.02152
1641.34,0.02146
1618.19,0.02199
1595.05,0.02191
1571.91,0.02163
1548.76,0.02120
1525.62,0.02158
1502.47,0.02140
1479.33,0.02118
1456.18,0.02095
1433.04,0.02056
1409.89,0.02022
1386.75,0.02025
1363.6,0.02031
1340.46,0.01964
1317.31,0.01948
1294.17,0.01990
1271.03,0.02148
1247.88,0.02195
1224.74,0.02130
1201.59,0.02029
1178.45,0.01980
1155.3,0.01990
1132.16,0.02052
1109.01,0.02139
1085.87,0.02106
1062.72,0.02354
1039.58,0.02221
1016.43,0.02255
993.29,0.02357
970.145,0.02372
947,0.02245
923.856,0.02199
900.711,0.02162
877.567,0.02124
854.422,0.02147
831.277,0.02006
808.133,0.02147
784.988,0.02033
761.844,0.01921
738.699,0.01919
715.554,0.01814
692.41,0.01810
669.265,0.01780
646.12,0.01798
622.976,0.01704
599.831,0.01458