File: 01_Data/PEVA/FTIR/IS/PEVA_0.10_IS_T_240808_R2.dpt
7496.93,0.04108
7473.78,0.03916
7450.64,0.04355
7427.49,0.03243
7404.35,0.04380
7381.2,0.03973
7358.06,0.04090
7334.91,0.02839
7311.77,0.02158
7288.62,0.03508
7265.48,0.04271
7242.34,0.03502
7219.19,0.02836
7196.05,0.03487
7172.9,0.02959
7149.76,0.02656
7126.61,0.03939
7103.47,0.03202
7080.32,0.02667
7057.18,0.02751
7034.03,0.04426
7010.89,0.02785
6987.74,0.02155
6964.6,0.04448
6941.46,0.04098
6918.31,0.03734
6895.17,0.03068
6872.02,0.03039
6848.88,0.03417
6825.73,0.03219
6802.59,0.03214
6779.44,0.02764
6756.3,0.03205
6733.15,0.03848
6710.01,0.03638
6686.86,0.02769
6663.72,0.02938
6640.58,0.02859
6617.43,0.03294
6594.29,0.03157
6571.14,0.03649
6548,0.02859
6524.85,0.03110
6501.71,0.03111
6478.56,0.03431
6455.42,0.02781
6432.27,0.03140
6409.13,0.03211
6385.98,0.02926
6362.84,0.02850
6339.7,0.03540
6316.55,0.03197
6293.41,0.02766
6270.26,0.02738
6247.12,0.02788
6223.97,0.02638
6200.83,0.02951
6177.68,0.02753
6154.54,0.03100
6131.39,0.03090
6108.25,0.03201
6085.1,0.02739
6061.96,0.02860
6038.82,0.03044
6015.67,0.03152
5992.53,0.02866
5969.38,0.02967
5946.24,0.02699
5923.09,0.02991
5899.95,0.02880
5876.8,0.02676
5853.66,0.02820
5830.51,0.02674
5807.37,0.03078
5784.22,0.03169
5761.08,0.02780
5737.94,0.03011
5714.79,0.03179
5691.65,0.03057
5668.5,0.03060
5645.36,0.03007
5622.21,0.02985
5599.07,0.02690
5575.92,0.02865
5552.78,0.02935
5529.63,0.02920
5506.49,0.02930
5483.34,0.02938
5460.2,0.02956
5437.06,0.02537
5413.91,0.02757
5390.77,0.03183
5367.62,0.02934
5344.48,0.02886
5321.33,0.02944
5298.19,0.02988
5275.04,0.03053
5251.9,0.02890
5228.75,0.02898
5205.61,0.03075
5182.46,0.02941
5159.32,0.03079
5136.18,0.02981
5113.03,0.02990
5089.89,0.03070
5066.74,0.02944
5043.6,0.02711
5020.45,0.02932
4997.31,0.02863
4974.16,0.03051
4951.02,0.02929
4927.87,0.02983
4904.73,0.02879
4881.58,0.02899
4858.44,0.02856
4835.3,0.02908
4812.15,0.02880
4789.01,0.02901
4765.86,0.03122
4742.72,0.02986
4719.57,0.03001
4696.43,0.02976
4673.28,0.03023
4650.14,0.02845
4626.99,0.02922
4603.85,0.02906
4580.7,0.02899
4557.56,0.02995
4534.42,0.02973
4511.27,0.02915
4488.13,0.02964
4464.98,0.02894
4441.84,0.02899
4418.69,0.02953
4395.55,0.03063
4372.4,0.02947
4349.26,0.02823
4326.11,0.02907
4302.97,0.02951
4279.82,0.02978
4256.68,0.02945
4233.54,0.02978
4210.39,0.02954
4187.25,0.02896
4164.1,0.03023
4140.96,0.02948
4117.81,0.02922
4094.67,0.02960
4071.52,0.02890
4048.38,0.02910
4025.23,0.02961
4002.09,0.02883
3978.94,0.02917
3955.8,0.02918
3932.66,0.03044
3909.51,0.02925
3886.37,0.03023
3863.22,0.02804
3840.08,0.02956
3816.93,0.02985
3793.79,0.03010
3770.64,0.02977
3747.5,0.02819
3724.35,0.02953
3701.21,0.02856
3678.06,0.02938
3654.92,0.02794
3631.78,0.02964
3608.63,0.02738
3585.49,0.02648
3562.34,0.02664
3539.2,0.02686
3516.05,0.02578
3492.91,0.02616
3469.76,0.02606
3446.62,0.02636
3423.47,0.02516
3400.33,0.02609
3377.18,0.02656
3354.04,0.02584
3330.9,0.02482
3307.75,0.02538
3284.61,0.02548
3261.46,0.02558
3238.32,0.02678
3215.17,0.02579
3192.03,0.02630
3168.88,0.02633
3145.74,0.02562
3122.59,0.02606
3099.45,0.02644
3076.3,0.02673
3053.16,0.02622
3030.02,0.02589
3006.87,0.02584
2983.73,0.02576
2960.58,0.02565
2937.44,0.02492
2914.29,0.02598
2891.15,0.02567
2868,0.02529
2844.86,0.02593
2821.71,0.02649
2798.57,0.02618
2775.42,0.02683
2752.28,0.02634
2729.14,0.02654
2705.99,0.02673
2682.85,0.02672
2659.7,0.02636
2636.56,0.02685
2613.41,0.02626
2590.27,0.02704
2567.12,0.02620
2543.98,0.02611
2520.83,0.02616
2497.69,0.02639
2474.55,0.02620
2451.4,0.02624
2428.26,0.02635
2405.11,0.02595
2381.97,0.02646
2358.82,0.02632
2335.68,0.02627
2312.53,0.02578
2289.39,0.02589
2266.24,0.02596
2243.1,0.02527
2219.95,0.02530
2196.81,0.02543
2173.67,0.02526
2150.52,0.02555
2127.38,0.02550
2104.23,0.02502
2081.09,0.02487
2057.94,0.02518
2034.8,0.02487
2011.65,0.02487
1988.51,0.02495
1965.36,0.02501
1942.22,0.02507
1919.07,0.02447
1895.93,0.02459
1872.79,0.02420
1849.64,0.02435
1826.5,0.02406
1803.35,0.02308
1780.21,0.02270
1757.06,0.02118
1733.92,0.02319
1710.77,0.02342
1687.63,0.02238
1664.48,0.02111
1641.34,0.02159
1618.19,0.02192
1595.05,0.02100
1571.91,0.02100
1548.76,0.02150
1525.62,0.02119
1502.47,0.02149
1479.33,0.02064
1456.18,0.02075
1433.04,0.02144
1409.89,0.02046
1386.75,0.02048
1363.6,0.02064
1340.46,0.01963
1317.31,0.01898
1294.17,0.01955
1271.03,0.02118
1247.88,0.02155
1224.74,0.02112
1201.59,0.02072
1178.45,0.01995
1155.3,0.01979
1132.16,0.01972
1109.01,0.02071
1085.87,0.02129
1062.72,0.02376
1039.58,0.02198
1016.43,0.02212
993.29,0.02310
970.145,0.02334
947,0.02237
923.856,0.02145
900.711,0.02110
877.567,0.02107
854.422,0.02087
831.277,0.02063
808.133,0.02021
784.988,0.02031
761.844,0.01969
738.699,0.01883
715.554,0.01835
692.41,0.01831
669.265,0.01926
646.12,0.01770
622.976,0.01727
599.831,0.01598