File: 01_Data/PEVA/FTIR/IS/PEVA_0.18_IS_T_240809_R7.dpt
7497.33,0.04111
7474.19,0.02714
7451.04,0.03288
7427.9,0.02990
7404.75,0.03992
7381.6,0.03068
7358.46,0.03214
7335.31,0.03622
7312.17,0.04405
7289.02,0.03646
7265.87,0.04078
7242.73,0.03420
7219.58,0.02976
7196.44,0.02673
7173.29,0.03959
7150.15,0.03968
7127,0.03534
7103.85,0.03213
7080.71,0.03519
7057.56,0.02716
7034.42,0.03293
7011.27,0.03394
6988.12,0.03208
6964.98,0.03056
6941.83,0.03054
6918.69,0.03552
6895.54,0.02932
6872.39,0.02608
6849.25,0.03727
6826.1,0.02922
6802.96,0.03124
6779.81,0.03117
6756.67,0.03443
6733.52,0.03721
6710.37,0.03557
6687.23,0.03226
6664.08,0.03134
6640.94,0.03181
6617.79,0.02872
6594.64,0.02991
6571.5,0.02799
6548.35,0.03395
6525.21,0.03072
6502.06,0.03324
6478.92,0.03569
6455.77,0.03029
6432.62,0.03195
6409.48,0.02727
6386.33,0.03028
6363.19,0.03103
6340.04,0.03563
6316.89,0.03403
6293.75,0.03147
6270.6,0.03207
6247.46,0.02926
6224.31,0.03488
6201.16,0.03072
6178.02,0.03337
6154.87,0.03045
6131.73,0.03640
6108.58,0.03276
6085.44,0.02776
6062.29,0.03514
6039.14,0.03026
6016,0.03114
5992.85,0.03202
5969.71,0.02967
5946.56,0.03083
5923.41,0.03149
5900.27,0.02781
5877.12,0.03207
5853.98,0.03136
5830.83,0.03399
5807.68,0.02967
5784.54,0.03027
5761.39,0.03021
5738.25,0.03067
5715.1,0.02995
5691.96,0.03381
5668.81,0.03110
5645.66,0.03088
5622.52,0.03220
5599.37,0.03067
5576.23,0.03006
5553.08,0.03050
5529.93,0.02856
5506.79,0.03100
5483.64,0.03052
5460.5,0.02963
5437.35,0.02954
5414.21,0.03042
5391.06,0.03210
5367.91,0.03159
5344.77,0.03171
5321.62,0.03122
5298.48,0.02979
5275.33,0.03099
5252.18,0.02907
5229.04,0.03140
5205.89,0.03100
5182.75,0.03011
5159.6,0.02987
5136.45,0.03038
5113.31,0.03048
5090.16,0.02930
5067.02,0.02886
5043.87,0.03008
5020.73,0.03066
4997.58,0.03085
4974.43,0.03015
4951.29,0.03040
4928.14,0.02853
4905,0.02944
4881.85,0.02956
4858.7,0.03041
4835.56,0.02954
4812.41,0.02919
4789.27,0.03066
4766.12,0.02929
4742.97,0.03029
4719.83,0.03037
4696.68,0.03113
4673.54,0.02946
4650.39,0.02987
4627.25,0.02947
4604.1,0.02950
4580.95,0.02992
4557.81,0.02950
4534.66,0.02860
4511.52,0.02952
4488.37,0.03057
4465.22,0.03047
4442.08,0.03006
4418.93,0.02958
4395.79,0.02994
4372.64,0.02950
4349.49,0.02939
4326.35,0.02989
4303.2,0.03049
4280.06,0.02924
4256.91,0.03033
4233.77,0.02967
4210.62,0.02909
4187.47,0.02945
4164.33,0.03023
4141.18,0.02963
4118.04,0.02936
4094.89,0.03032
4071.74,0.02981
4048.6,0.03034
4025.45,0.02967
4002.31,0.02986
3979.16,0.02952
3956.02,0.03024
3932.87,0.03060
3909.72,0.02968
3886.58,0.03067
3863.43,0.02998
3840.29,0.03024
3817.14,0.03060
3793.99,0.02905
3770.85,0.03003
3747.7,0.02994
3724.56,0.02940
3701.41,0.02974
3678.26,0.02965
3655.12,0.02896
3631.97,0.02899
3608.83,0.02780
3585.68,0.02659
3562.54,0.02689
3539.39,0.02662
3516.24,0.02684
3493.1,0.02626
3469.95,0.02626
3446.81,0.02639
3423.66,0.02564
3400.51,0.02637
3377.37,0.02541
3354.22,0.02598
3331.08,0.02562
3307.93,0.02551
3284.78,0.02617
3261.64,0.02562
3238.49,0.02646
3215.35,0.02638
3192.2,0.02676
3169.06,0.02721
3145.91,0.02645
3122.76,0.02648
3099.62,0.02645
3076.47,0.02646
3053.33,0.02597
3030.18,0.02666
3007.03,0.02649
2983.89,0.02563
2960.74,0.02531
2937.6,0.02488
2914.45,0.02616
2891.31,0.02580
2868.16,0.02557
2845.01,0.02656
2821.87,0.02680
2798.72,0.02755
2775.58,0.02709
2752.43,0.02647
2729.28,0.02683
2706.14,0.02695
2682.99,0.02679
2659.85,0.02632
2636.7,0.02694
2613.55,0.02704
2590.41,0.02631
2567.26,0.02705
2544.12,0.02651
2520.97,0.02662
2497.83,0.02671
2474.68,0.02676
2451.53,0.02609
2428.39,0.02638
2405.24,0.02676
2382.1,0.02717
2358.95,0.02707
2335.8,0.02735
2312.66,0.02633
2289.51,0.02569
2266.37,0.02554
2243.22,0.02601
2220.07,0.02600
2196.93,0.02578
2173.78,0.02562
2150.64,0.02585
2127.49,0.02560
2104.35,0.02568
2081.2,0.02496
2058.05,0.02510
2034.91,0.02566
2011.76,0.02540
1988.62,0.02510
1965.47,0.02522
1942.32,0.02542
1919.18,0.02514
1896.03,0.02515
1872.89,0.02480
1849.74,0.02468
1826.6,0.02423
1803.45,0.02409
1780.3,0.02300
1757.16,0.02164
1734.01,0.02363
1710.87,0.02416
1687.72,0.02255
1664.57,0.02146
1641.43,0.02174
1618.28,0.02167
1595.14,0.02183
1571.99,0.02158
1548.84,0.02146
1525.7,0.02192
1502.55,0.02154
1479.41,0.02173
1456.26,0.02171
1433.12,0.02113
1409.97,0.02096
1386.82,0.02009
1363.68,0.02056
1340.53,0.02054
1317.39,0.01940
1294.24,0.02039
1271.09,0.02149
1247.95,0.02215
1224.8,0.02165
1201.66,0.02109
1178.51,0.01993
1155.36,0.02032
1132.22,0.01976
1109.07,0.02102
1085.93,0.02200
1062.78,0.02379
1039.64,0.02332
1016.49,0.02339
993.344,0.02387
970.198,0.02317
947.052,0.02296
923.906,0.02236
900.76,0.02189
877.614,0.02243
854.468,0.02173
831.323,0.02150
808.177,0.02155
785.031,0.02124
761.885,0.02067
738.739,0.01971
715.593,0.01981
692.447,0.01971
669.301,0.01899
646.156,0.01724
623.01,0.01789
599.864,0.01923