File: 01_Data/PEVA/FTIR/IS/PEVA_0.18_IS_S_240809_R8.dpt
7497.33,0.09519
7474.19,0.09608
7451.04,0.09688
7427.9,0.10230
7404.75,0.09642
7381.6,0.10341
7358.46,0.08868
7335.31,0.10854
7312.17,0.09873
7289.02,0.10886
7265.87,0.09371
7242.73,0.09665
7219.58,0.09749
7196.44,0.09111
7173.29,0.10534
7150.15,0.10610
7127,0.09149
7103.85,0.09845
7080.71,0.09833
7057.56,0.10505
7034.42,0.09795
7011.27,0.10026
6988.12,0.09398
6964.98,0.09394
6941.83,0.10230
6918.69,0.09996
6895.54,0.09292
6872.39,0.09774
6849.25,0.10352
6826.1,0.10194
6802.96,0.09814
6779.81,0.09413
6756.67,0.10011
6733.52,0.09661
6710.37,0.10013
6687.23,0.09602
6664.08,0.10426
6640.94,0.10401
6617.79,0.10254
6594.64,0.10000
6571.5,0.10223
6548.35,0.09890
6525.21,0.09659
6502.06,0.09952
6478.92,0.10233
6455.77,0.10225
6432.62,0.10265
6409.48,0.10664
6386.33,0.10129
6363.19,0.10432
6340.04,0.09956
6316.89,0.09963
6293.75,0.10024
6270.6,0.10084
6247.46,0.09877
6224.31,0.10073
6201.16,0.10203
6178.02,0.09959
6154.87,0.10277
6131.73,0.09924
6108.58,0.09898
6085.44,0.10379
6062.29,0.09475
6039.14,0.10004
6016,0.10292
5992.85,0.09603
5969.71,0.09615
5946.56,0.09697
5923.41,0.09977
5900.27,0.09828
5877.12,0.09758
5853.98,0.09260
5830.83,0.09119
5807.68,0.08823
5784.54,0.08259
5761.39,0.08623
5738.25,0.09507
5715.1,0.09160
5691.96,0.09343
5668.81,0.09161
5645.66,0.09366
5622.52,0.09412
5599.37,0.09576
5576.23,0.09707
5553.08,0.09455
5529.93,0.09576
5506.79,0.09472
5483.64,0.09539
5460.5,0.09718
5437.35,0.09632
5414.21,0.09912
5391.06,0.09956
5367.91,0.09860
5344.77,0.10035
5321.62,0.09774
5298.48,0.09859
5275.33,0.10028
5252.18,0.09900
5229.04,0.10002
5205.89,0.09921
5182.75,0.09866
5159.6,0.09937
5136.45,0.09995
5113.31,0.09967
5090.16,0.09982
5067.02,0.09987
5043.87,0.10007
5020.73,0.09872
4997.58,0.09826
4974.43,0.09986
4951.29,0.09953
4928.14,0.10082
4905,0.10008
4881.85,0.09990
4858.7,0.10037
4835.56,0.10075
4812.41,0.10051
4789.27,0.10068
4766.12,0.10019
4742.97,0.10086
4719.83,0.10132
4696.68,0.09971
4673.54,0.09810
4650.39,0.10054
4627.25,0.10008
4604.1,0.10068
4580.95,0.09985
4557.81,0.10050
4534.66,0.10059
4511.52,0.10026
4488.37,0.09909
4465.22,0.09793
4442.08,0.09332
4418.93,0.09173
4395.79,0.08755
4372.64,0.08070
4349.49,0.07227
4326.35,0.06346
4303.2,0.07701
4280.06,0.07588
4256.91,0.06638
4233.77,0.07410
4210.62,0.07227
4187.47,0.06992
4164.33,0.07064
4141.18,0.07154
4118.04,0.07307
4094.89,0.07275
4071.74,0.07687
4048.6,0.07883
4025.45,0.07936
4002.31,0.08261
3979.16,0.08220
3956.02,0.08369
3932.87,0.08444
3909.72,0.08371
3886.58,0.08453
3863.43,0.08703
3840.29,0.08723
3817.14,0.08749
3793.99,0.08974
3770.85,0.08987
3747.7,0.08779
3724.56,0.08851
3701.41,0.08682
3678.26,0.08681
3655.12,0.08352
3631.97,0.08433
3608.83,0.08037
3585.68,0.08930
3562.54,0.09126
3539.39,0.09182
3516.24,0.09210
3493.1,0.09008
3469.95,0.08346
3446.81,0.08151
3423.66,0.08771
3400.51,0.08871
3377.37,0.08824
3354.22,0.08769
3331.08,0.08900
3307.93,0.08912
3284.78,0.08813
3261.64,0.08903
3238.49,0.08840
3215.35,0.08755
3192.2,0.08621
3169.06,0.08505
3145.91,0.08249
3122.76,0.07846
3099.62,0.07169
3076.47,0.06372
3053.33,0.05954
3030.18,0.05554
3007.03,0.05418
2983.89,0.05171
2960.74,0.04713
2937.6,0.03960
2914.45,0.08768
2891.31,0.06820
2868.16,0.05896
2845.01,0.08325
2821.87,0.06673
2798.72,0.06595
2775.58,0.06825
2752.43,0.06875
2729.28,0.06788
2706.14,0.06814
2682.99,0.06624
2659.85,0.06577
2636.7,0.06631
2613.55,0.06981
2590.41,0.07414
2567.26,0.07917
2544.12,0.08248
2520.97,0.08464
2497.83,0.08675
2474.68,0.08716
2451.53,0.09146
2428.39,0.09163
2405.24,0.08981
2382.1,0.08903
2358.95,0.08582
2335.8,0.08099
2312.66,0.08126
2289.51,0.08383
2266.37,0.08653
2243.22,0.08913
2220.07,0.09300
2196.93,0.09319
2173.78,0.09155
2150.64,0.09075
2127.49,0.09340
2104.35,0.09253
2081.2,0.08997
2058.05,0.08750
2034.91,0.08429
2011.76,0.08479
1988.62,0.09093
1965.47,0.09078
1942.32,0.09010
1919.18,0.08883
1896.03,0.08496
1872.89,0.08509
1849.74,0.08556
1826.6,0.08161
1803.45,0.07594
1780.3,0.06967
1757.16,0.05948
1734.01,0.05034
1710.87,0.05850
1687.72,0.06260
1664.57,0.06974
1641.43,0.07002
1618.28,0.07652
1595.14,0.07859
1571.99,0.07777
1548.84,0.07451
1525.7,0.07277
1502.55,0.06942
1479.41,0.05479
1456.26,0.06293
1433.12,0.06065
1409.97,0.06180
1386.82,0.05488
1363.68,0.05480
1340.53,0.05854
1317.39,0.05597
1294.24,0.05513
1271.09,0.05568
1247.95,0.07290
1224.8,0.06031
1201.66,0.05771
1178.51,0.05951
1155.36,0.05989
1132.22,0.05871
1109.07,0.05920
1085.93,0.05880
1062.78,0.05798
1039.64,0.05813
1016.49,0.06205
993.344,0.06253
970.198,0.06079
947.052,0.06084
923.906,0.06608
900.76,0.07137
877.614,0.07123
854.468,0.07078
831.323,0.07332
808.177,0.07244
785.031,0.07762
761.885,0.07609
738.739,0.05855
715.593,0.06162
692.447,0.09022
669.301,0.08959
646.156,0.06506
623.01,0.06084
599.864,0.05886