File: 01_Data/PEVA/FTIR/IS/PEVA_0.26_IS_T_240809_R7.dpt
7497.2,0.04184
7474.05,0.03653
7450.91,0.03483
7427.76,0.03502
7404.62,0.02860
7381.47,0.03600
7358.33,0.03164
7335.18,0.03596
7312.04,0.04591
7288.89,0.03031
7265.75,0.03285
7242.6,0.03530
7219.45,0.02743
7196.31,0.03711
7173.16,0.03952
7150.02,0.04123
7126.87,0.03813
7103.73,0.03406
7080.58,0.03179
7057.44,0.03143
7034.29,0.03001
7011.15,0.02784
6988,0.03006
6964.85,0.03086
6941.71,0.03726
6918.56,0.03139
6895.42,0.03355
6872.27,0.03283
6849.13,0.03291
6825.98,0.03149
6802.84,0.03659
6779.69,0.03853
6756.55,0.03185
6733.4,0.03571
6710.25,0.03376
6687.11,0.03253
6663.96,0.03284
6640.82,0.02504
6617.67,0.03474
6594.53,0.03066
6571.38,0.03254
6548.24,0.03349
6525.09,0.03000
6501.95,0.03162
6478.8,0.03002
6455.65,0.03296
6432.51,0.03399
6409.36,0.02707
6386.22,0.02733
6363.07,0.03282
6339.93,0.03109
6316.78,0.03281
6293.64,0.03091
6270.49,0.03257
6247.34,0.03526
6224.2,0.03138
6201.05,0.03265
6177.91,0.03392
6154.76,0.02433
6131.62,0.02873
6108.47,0.02960
6085.33,0.03149
6062.18,0.02822
6039.04,0.03069
6015.89,0.03015
5992.74,0.03283
5969.6,0.03074
5946.45,0.02967
5923.31,0.03246
5900.16,0.03303
5877.02,0.02842
5853.87,0.02775
5830.73,0.03190
5807.58,0.03093
5784.44,0.03036
5761.29,0.03101
5738.14,0.03026
5715,0.02968
5691.85,0.03108
5668.71,0.03221
5645.56,0.03231
5622.42,0.03113
5599.27,0.03065
5576.13,0.02954
5552.98,0.02930
5529.84,0.02997
5506.69,0.03086
5483.54,0.03083
5460.4,0.02968
5437.25,0.03290
5414.11,0.03031
5390.96,0.03262
5367.82,0.03231
5344.67,0.02865
5321.53,0.02963
5298.38,0.03077
5275.24,0.02876
5252.09,0.03132
5228.94,0.03054
5205.8,0.03114
5182.65,0.03243
5159.51,0.03062
5136.36,0.03035
5113.22,0.03152
5090.07,0.03232
5066.93,0.03048
5043.78,0.03118
5020.64,0.03027
4997.49,0.02975
4974.34,0.03105
4951.2,0.03047
4928.05,0.02968
4904.91,0.02994
4881.76,0.03091
4858.62,0.03039
4835.47,0.03162
4812.33,0.03128
4789.18,0.03120
4766.04,0.03094
4742.89,0.03079
4719.74,0.03031
4696.6,0.03100
4673.45,0.03035
4650.31,0.03121
4627.16,0.03054
4604.02,0.03128
4580.87,0.03076
4557.73,0.03114
4534.58,0.03060
4511.44,0.03077
4488.29,0.03115
4465.14,0.03172
4442,0.03138
4418.85,0.03121
4395.71,0.03091
4372.56,0.03104
4349.42,0.03002
4326.27,0.03130
4303.13,0.03008
4279.98,0.03096
4256.84,0.03049
4233.69,0.03069
4210.54,0.03097
4187.4,0.03096
4164.25,0.03072
4141.11,0.03027
4117.96,0.03104
4094.82,0.03031
4071.67,0.02986
4048.53,0.03111
4025.38,0.03086
4002.24,0.03025
3979.09,0.03037
3955.94,0.02958
3932.8,0.03049
3909.65,0.03020
3886.51,0.03002
3863.36,0.03029
3840.22,0.03054
3817.07,0.03010
3793.93,0.02970
3770.78,0.03050
3747.64,0.03057
3724.49,0.03019
3701.34,0.03010
3678.2,0.03002
3655.05,0.02878
3631.91,0.02809
3608.76,0.02911
3585.62,0.02864
3562.47,0.02763
3539.33,0.02731
3516.18,0.02654
3493.04,0.02648
3469.89,0.02635
3446.74,0.02689
3423.6,0.02662
3400.45,0.02615
3377.31,0.02644
3354.16,0.02603
3331.02,0.02660
3307.87,0.02629
3284.73,0.02691
3261.58,0.02667
3238.44,0.02643
3215.29,0.02685
3192.14,0.02810
3169,0.02696
3145.85,0.02731
3122.71,0.02772
3099.56,0.02753
3076.42,0.02682
3053.27,0.02690
3030.13,0.02727
3006.98,0.02686
2983.84,0.02649
2960.69,0.02590
2937.54,0.02617
2914.4,0.02666
2891.25,0.02677
2868.11,0.02696
2844.96,0.02754
2821.82,0.02783
2798.67,0.02737
2775.53,0.02720
2752.38,0.02737
2729.24,0.02795
2706.09,0.02735
2682.94,0.02780
2659.8,0.02783
2636.65,0.02738
2613.51,0.02779
2590.36,0.02759
2567.22,0.02765
2544.07,0.02753
2520.93,0.02742
2497.78,0.02745
2474.64,0.02720
2451.49,0.02742
2428.34,0.02702
2405.2,0.02717
2382.05,0.02753
2358.91,0.02750
2335.76,0.02771
2312.62,0.02706
2289.47,0.02690
2266.33,0.02686
2243.18,0.02646
2220.04,0.02651
2196.89,0.02655
2173.74,0.02661
2150.6,0.02614
2127.45,0.02691
2104.31,0.02614
2081.16,0.02637
2058.02,0.02648
2034.87,0.02639
2011.73,0.02623
1988.58,0.02579
1965.44,0.02595
1942.29,0.02570
1919.14,0.02584
1896,0.02562
1872.85,0.02568
1849.71,0.02531
1826.56,0.02464
1803.42,0.02440
1780.27,0.02318
1757.13,0.02192
1733.98,0.02405
1710.84,0.02421
1687.69,0.02274
1664.54,0.02202
1641.4,0.02195
1618.25,0.02259
1595.11,0.02249
1571.96,0.02185
1548.82,0.02213
1525.67,0.02242
1502.53,0.02197
1479.38,0.02214
1456.24,0.02136
1433.09,0.02211
1409.94,0.02123
1386.8,0.02081
1363.65,0.02129
1340.51,0.02095
1317.36,0.01993
1294.22,0.02060
1271.07,0.02210
1247.93,0.02323
1224.78,0.02241
1201.64,0.02159
1178.49,0.02076
1155.34,0.02044
1132.2,0.02086
1109.05,0.02244
1085.91,0.02241
1062.76,0.02472
1039.62,0.02330
1016.47,0.02295
993.326,0.02412
970.18,0.02361
947.035,0.02280
923.89,0.02298
900.744,0.02287
877.599,0.02261
854.453,0.02224
831.308,0.02244
808.162,0.02178
785.017,0.02037
761.871,0.01975
738.726,0.02031
715.58,0.02093
692.435,0.02026
669.29,0.01923
646.144,0.01914
622.999,0.01905
599.853,0.02162