File: 01_Data/PEVA/FTIR/IS/PEVA_0.26_IS_Trans_S_240819_R11.dpt
7496.91,0.93075
7473.76,0.93630
7450.62,0.94542
7427.47,0.93945
7404.33,0.92158
7381.18,0.91064
7358.04,0.93147
7334.89,0.91819
7311.75,0.90817
7288.61,0.90959
7265.46,0.91320
7242.32,0.89732
7219.17,0.91469
7196.03,0.91937
7172.88,0.92643
7149.74,0.91170
7126.59,0.90660
7103.45,0.90135
7080.3,0.90193
7057.16,0.91774
7034.02,0.90970
7010.87,0.91498
6987.73,0.91444
6964.58,0.92312
6941.44,0.92584
6918.29,0.91922
6895.15,0.92103
6872,0.92309
6848.86,0.91267
6825.71,0.92478
6802.57,0.91732
6779.43,0.92137
6756.28,0.92439
6733.14,0.93001
6709.99,0.92813
6686.85,0.92250
6663.7,0.92270
6640.56,0.92988
6617.41,0.92387
6594.27,0.93151
6571.12,0.92894
6547.98,0.92523
6524.84,0.92990
6501.69,0.93230
6478.55,0.93159
6455.4,0.93300
6432.26,0.92983
6409.11,0.92319
6385.97,0.93296
6362.82,0.92809
6339.68,0.93190
6316.53,0.92987
6293.39,0.93656
6270.24,0.93415
6247.1,0.93196
6223.96,0.92914
6200.81,0.92683
6177.67,0.92626
6154.52,0.92606
6131.38,0.92604
6108.23,0.91971
6085.09,0.91295
6061.94,0.90533
6038.8,0.88745
6015.65,0.88266
5992.51,0.89290
5969.37,0.89790
5946.22,0.89393
5923.08,0.87011
5899.93,0.84382
5876.79,0.80958
5853.64,0.77418
5830.5,0.72204
5807.35,0.75238
5784.21,0.80565
5761.06,0.81698
5737.92,0.81454
5714.78,0.81844
5691.63,0.82388
5668.49,0.83702
5645.34,0.84676
5622.2,0.85567
5599.05,0.86312
5575.91,0.87106
5552.76,0.87409
5529.62,0.87444
5506.47,0.87530
5483.33,0.87557
5460.19,0.87189
5437.04,0.87734
5413.9,0.87521
5390.75,0.88565
5367.61,0.89357
5344.46,0.88028
5321.32,0.89861
5298.17,0.89856
5275.03,0.89799
5251.88,0.89427
5228.74,0.89477
5205.6,0.88957
5182.45,0.89739
5159.31,0.89829
5136.16,0.89866
5113.02,0.90046
5089.87,0.90009
5066.73,0.90741
5043.58,0.90586
5020.44,0.90897
4997.29,0.90768
4974.15,0.90711
4951.01,0.90970
4927.86,0.90866
4904.72,0.90863
4881.57,0.90907
4858.43,0.90934
4835.28,0.90853
4812.14,0.90697
4788.99,0.90385
4765.85,0.90653
4742.7,0.90534
4719.56,0.89258
4696.42,0.87891
4673.27,0.87626
4650.13,0.88141
4626.98,0.87082
4603.84,0.89058
4580.69,0.88652
4557.55,0.89214
4534.4,0.89072
4511.26,0.88431
4488.11,0.86363
4464.97,0.84724
4441.83,0.79760
4418.68,0.69952
4395.54,0.62031
4372.39,0.54248
4349.25,0.41430
4326.1,0.37608
4302.96,0.47945
4279.81,0.47376
4256.67,0.49046
4233.52,0.48288
4210.38,0.46856
4187.24,0.50850
4164.09,0.50127
4140.95,0.56343
4117.8,0.58802
4094.66,0.54908
4071.51,0.54290
4048.37,0.62067
4025.22,0.63352
4002.08,0.65677
3978.93,0.69097
3955.79,0.70560
3932.65,0.70145
3909.5,0.71006
3886.36,0.70970
3863.21,0.70250
3840.07,0.69925
3816.92,0.71515
3793.78,0.75049
3770.63,0.75526
3747.49,0.72529
3724.34,0.75430
3701.2,0.74530
3678.06,0.66083
3654.91,0.68819
3631.77,0.68041
3608.62,0.64360
3585.48,0.61770
3562.33,0.57672
3539.19,0.55470
3516.04,0.53826
3492.9,0.49190
3469.75,0.42990
3446.61,0.36830
3423.47,0.29151
3400.32,0.38573
3377.18,0.46857
3354.03,0.50148
3330.89,0.48766
3307.74,0.34815
3284.6,0.45203
3261.45,0.55430
3238.31,0.56631
3215.16,0.55100
3192.02,0.53911
3168.87,0.54423
3145.73,0.53300
3122.59,0.49088
3099.44,0.41655
3076.3,0.33439
3053.15,0.27100
3030.01,0.24028
3006.86,0.08339
2983.72,0.00075
2960.57,0.00067
2937.43,0.00024
2914.28,0.00062
2891.14,0.00058
2868,0.00025
2844.85,0.00116
2821.71,0.06114
2798.56,0.21636
2775.42,0.34565
2752.27,0.36371
2729.13,0.33951
2705.98,0.44387
2682.84,0.46202
2659.69,0.48377
2636.55,0.50259
2613.41,0.48795
2590.26,0.48863
2567.12,0.49724
2543.97,0.51790
2520.83,0.54543
2497.68,0.59347
2474.54,0.61315
2451.39,0.62003
2428.25,0.58994
2405.1,0.54775
2381.96,0.50380
2358.82,0.45838
2335.67,0.54409
2312.53,0.61401
2289.38,0.62090
2266.24,0.61891
2243.09,0.62728
2219.95,0.63672
2196.8,0.67401
2173.66,0.69946
2150.51,0.69073
2127.37,0.68403
2104.23,0.67744
2081.08,0.66380
2057.94,0.66577
2034.79,0.68384
2011.65,0.70186
1988.5,0.66747
1965.36,0.61276
1942.21,0.52097
1919.07,0.63384
1895.92,0.65203
1872.78,0.65899
1849.64,0.59904
1826.49,0.41723
1803.35,0.42906
1780.2,0.30067
1757.06,0.08634
1733.91,0.00043
1710.77,0.00044
1687.62,0.04877
1664.48,0.18359
1641.33,0.19762
1618.19,0.30097
1595.05,0.35098
1571.9,0.16451
1548.76,0.26627
1525.61,0.24800
1502.47,0.07694
1479.32,0.03858
1456.18,0.00072
1433.03,0.00023
1409.89,0.00006
1386.74,0.00015
1363.6,0.00166
1340.46,0.00032
1317.31,0.00038
1294.17,0.00018
1271.02,0.00016
1247.88,0.00036
1224.73,0.00041
1201.59,0.00139
1178.44,0.01232
1155.3,0.00618
1132.15,0.00012
1109.01,0.00053
1085.87,0.00056
1062.72,0.01385
1039.58,0.02255
1016.43,0.00113
993.287,0.00200
970.142,0.00020
946.998,0.00010
923.853,0.00368
900.709,0.02661
877.564,0.00437
854.42,0.04048
831.275,0.02951
808.131,0.16303
784.986,0.10341
761.842,0.10345
738.697,0.00428
715.552,0.02301
692.408,0.00110
669.263,0.01407
646.119,0.00091
622.974,0.00169
599.83,0.00649