File: 01_Data/PEVA/FTIR/IS/PEVA_0.10_IS_Trans_T_240819_R3.dpt
7496.91,0.03452
7473.76,0.03185
7450.62,0.03540
7427.47,0.00882
7404.33,0.04255
7381.18,0.03654
7358.04,0.03356
7334.89,0.01481
7311.75,0.02417
7288.61,0.01229
7265.46,0.00952
7242.32,0.03306
7219.17,0.01510
7196.03,0.02804
7172.88,0.02574
7149.74,0.01557
7126.59,0.02250
7103.45,0.01600
7080.3,0.02316
7057.16,0.00634
7034.02,0.01633
7010.87,0.00235
6987.73,0.01731
6964.58,0.01355
6941.44,0.01564
6918.29,0.02215
6895.15,0.01993
6872,0.01518
6848.86,0.00557
6825.71,0.01753
6802.57,0.01238
6779.43,0.01012
6756.28,0.01503
6733.14,0.02376
6709.99,0.01041
6686.85,0.00734
6663.7,0.00993
6640.56,0.00648
6617.41,0.02474
6594.27,0.01369
6571.12,0.01450
6547.98,0.01122
6524.84,0.00483
6501.69,0.01065
6478.55,0.01370
6455.4,0.00248
6432.26,0.00447
6409.11,0.01142
6385.97,0.01173
6362.82,0.00518
6339.68,0.00208
6316.53,0.00713
6293.39,0.00660
6270.24,0.00388
6247.1,0.01223
6223.96,0.00491
6200.81,0.00588
6177.67,0.00566
6154.52,0.00461
6131.38,0.00675
6108.23,0.00571
6085.09,0.01128
6061.94,0.00225
6038.8,0.00243
6015.65,0.01024
5992.51,0.00822
5969.37,0.00804
5946.22,0.00805
5923.08,0.00439
5899.93,0.00842
5876.79,0.00715
5853.64,0.00162
5830.5,0.00561
5807.35,0.00478
5784.21,0.00145
5761.06,0.00620
5737.92,-0.00114
5714.78,0.00598
5691.63,0.00265
5668.49,0.00195
5645.34,0.00317
5622.2,0.00186
5599.05,0.00656
5575.91,0.00261
5552.76,0.00550
5529.62,0.00194
5506.47,0.00324
5483.33,0.00571
5460.19,0.00593
5437.04,0.00495
5413.9,0.00229
5390.75,0.00202
5367.61,0.00076
5344.46,0.00486
5321.32,0.00131
5298.17,0.00610
5275.03,0.00228
5251.88,0.00288
5228.74,0.00105
5205.6,0.00254
5182.45,0.00329
5159.31,0.00206
5136.16,0.00338
5113.02,0.00071
5089.87,0.00357
5066.73,0.00117
5043.58,0.00251
5020.44,0.00275
4997.29,0.00280
4974.15,0.00334
4951.01,0.00194
4927.86,0.00320
4904.72,0.00159
4881.57,0.00444
4858.43,0.00320
4835.28,0.00052
4812.14,0.00404
4788.99,0.00032
4765.85,0.00364
4742.7,0.00215
4719.56,0.00137
4696.42,0.00292
4673.27,0.00161
4650.13,0.00238
4626.98,0.00111
4603.84,0.00250
4580.69,0.00149
4557.55,0.00178
4534.4,0.00120
4511.26,0.00080
4488.11,0.00272
4464.97,0.00178
4441.83,0.00121
4418.68,0.00161
4395.54,0.00056
4372.39,0.00133
4349.25,0.00247
4326.1,0.00025
4302.96,0.00079
4279.81,0.00163
4256.67,-0.00030
4233.52,0.00113
4210.38,0.00122
4187.24,0.00157
4164.09,0.00190
4140.95,0.00149
4117.8,0.00092
4094.66,0.00071
4071.51,0.00148
4048.37,0.00121
4025.22,0.00050
4002.08,0.00137
3978.93,0.00011
3955.79,0.00065
3932.65,0.00108
3909.5,0.00149
3886.36,0.00216
3863.21,0.00147
3840.07,0.00190
3816.92,0.00113
3793.78,0.00131
3770.63,0.00162
3747.49,0.00310
3724.34,0.00117
3701.2,0.00029
3678.06,0.00078
3654.91,0.00250
3631.77,0.00272
3608.62,0.00191
3585.48,0.00053
3562.33,0.00241
3539.19,0.00151
3516.04,0.00076
3492.9,0.00168
3469.75,0.00227
3446.61,0.00171
3423.47,0.00040
3400.32,0.00183
3377.18,0.00109
3354.03,0.00286
3330.89,0.00241
3307.74,0.00203
3284.6,0.00206
3261.45,0.00227
3238.31,0.00188
3215.16,0.00192
3192.02,0.00119
3168.87,0.00066
3145.73,0.00192
3122.59,0.00119
3099.44,0.00094
3076.3,0.00157
3053.15,0.00144
3030.01,0.00114
3006.86,0.00149
2983.72,0.00145
2960.57,0.00076
2937.43,0.00129
2914.28,0.00135
2891.14,0.00060
2868,0.00093
2844.85,0.00017
2821.71,0.00107
2798.56,0.00060
2775.42,0.00053
2752.27,0.00085
2729.13,0.00010
2705.98,0.00034
2682.84,0.00037
2659.69,0.00007
2636.55,0.00031
2613.41,0.00121
2590.26,0.00115
2567.12,0.00043
2543.97,0.00081
2520.83,0.00042
2497.68,0.00041
2474.54,0.00119
2451.39,0.00095
2428.25,0.00098
2405.1,0.00030
2381.96,0.00088
2358.82,-0.00034
2335.67,-0.00006
2312.53,0.00092
2289.38,0.00117
2266.24,0.00020
2243.09,0.00041
2219.95,0.00028
2196.8,0.00036
2173.66,0.00061
2150.51,0.00045
2127.37,0.00056
2104.23,0.00067
2081.08,0.00016
2057.94,0.00066
2034.79,0.00011
2011.65,0.00069
1988.5,0.00083
1965.36,0.00045
1942.21,0.00079
1919.07,-0.00009
1895.92,0.00094
1872.78,0.00049
1849.64,0.00059
1826.49,0.00086
1803.35,0.00018
1780.2,0.00072
1757.06,0.00041
1733.91,0.00024
1710.77,0.00009
1687.62,0.00056
1664.48,0.00145
1641.33,0.00060
1618.19,-0.00001
1595.05,0.00087
1571.9,0.00048
1548.76,0.00061
1525.61,0.00074
1502.47,-0.00021
1479.32,0.00095
1456.18,0.00118
1433.03,0.00059
1409.89,0.00101
1386.74,0.00053
1363.6,0.00032
1340.46,0.00033
1317.31,0.00052
1294.17,0.00026
1271.02,0.00072
1247.88,0.00048
1224.73,0.00081
1201.59,0.00026
1178.44,0.00142
1155.3,0.00086
1132.15,0.00119
1109.01,0.00083
1085.87,0.00070
1062.72,0.00064
1039.58,0.00100
1016.43,0.00063
993.287,0.00092
970.142,-0.00002
946.998,0.00144
923.853,0.00125
900.709,0.00107
877.564,0.00058
854.42,0.00133
831.275,0.00052
808.131,0.00150
784.986,0.00127
761.842,0.00075
738.697,0.00144
715.552,0.00106
692.408,0.00159
669.263,0.00235
646.119,0.00009
622.974,0.00209
599.83,0.00413