File: 01_Data/PEVA/FTIR/IS/PEVA_0.10_IS_Trans_T_240819_R1.dpt
7496.91,0.01413
7473.76,0.03946
7450.62,0.00936
7427.47,0.03233
7404.33,0.04131
7381.18,0.02768
7358.04,0.01242
7334.89,0.03128
7311.75,0.03583
7288.61,0.01732
7265.46,0.03178
7242.32,0.01940
7219.17,0.00623
7196.03,0.01606
7172.88,0.01033
7149.74,0.01242
7126.59,0.01281
7103.45,0.02711
7080.3,0.02817
7057.16,0.02659
7034.02,0.02317
7010.87,0.01457
6987.73,0.00578
6964.58,0.01020
6941.44,0.02472
6918.29,0.02047
6895.15,0.00945
6872,0.02933
6848.86,0.00937
6825.71,0.01415
6802.57,0.01454
6779.43,0.02154
6756.28,0.01064
6733.14,0.00869
6709.99,0.01172
6686.85,0.00456
6663.7,0.00478
6640.56,0.01789
6617.41,0.00533
6594.27,0.01575
6571.12,0.00688
6547.98,0.02090
6524.84,0.01197
6501.69,0.01936
6478.55,0.01099
6455.4,0.00427
6432.26,0.00423
6409.11,0.00454
6385.97,0.00775
6362.82,0.00969
6339.68,0.00900
6316.53,0.00979
6293.39,0.00403
6270.24,0.00547
6247.1,0.00834
6223.96,0.00363
6200.81,0.01029
6177.67,0.00038
6154.52,0.00737
6131.38,0.00708
6108.23,0.01861
6085.09,0.00586
6061.94,0.00577
6038.8,0.00792
6015.65,0.00714
5992.51,-0.00060
5969.37,0.00697
5946.22,0.00158
5923.08,0.00346
5899.93,0.01003
5876.79,0.00328
5853.64,0.00565
5830.5,0.00476
5807.35,0.00769
5784.21,0.00128
5761.06,0.00678
5737.92,0.00950
5714.78,0.00414
5691.63,0.01055
5668.49,0.00412
5645.34,0.00476
5622.2,0.00769
5599.05,0.00545
5575.91,0.00704
5552.76,0.00504
5529.62,0.00248
5506.47,0.00514
5483.33,0.00546
5460.19,0.00277
5437.04,0.00190
5413.9,0.00509
5390.75,0.00350
5367.61,0.00505
5344.46,0.00284
5321.32,0.00240
5298.17,0.00504
5275.03,0.00193
5251.88,0.00266
5228.74,0.00555
5205.6,0.00323
5182.45,0.00354
5159.31,0.00504
5136.16,0.00440
5113.02,0.00306
5089.87,0.00205
5066.73,0.00449
5043.58,0.00195
5020.44,0.00347
4997.29,0.00081
4974.15,0.00292
4951.01,0.00275
4927.86,0.00173
4904.72,0.00132
4881.57,0.00254
4858.43,0.00334
4835.28,0.00350
4812.14,0.00126
4788.99,0.00257
4765.85,0.00232
4742.7,0.00073
4719.56,0.00237
4696.42,0.00206
4673.27,0.00191
4650.13,0.00038
4626.98,0.00247
4603.84,0.00210
4580.69,0.00127
4557.55,0.00057
4534.4,0.00102
4511.26,0.00126
4488.11,0.00231
4464.97,0.00303
4441.83,0.00229
4418.68,0.00300
4395.54,0.00128
4372.39,0.00114
4349.25,0.00240
4326.1,0.00246
4302.96,0.00209
4279.81,0.00219
4256.67,0.00070
4233.52,0.00166
4210.38,0.00292
4187.24,0.00146
4164.09,0.00082
4140.95,0.00160
4117.8,0.00140
4094.66,0.00186
4071.51,0.00097
4048.37,0.00104
4025.22,0.00125
4002.08,0.00046
3978.93,0.00159
3955.79,0.00225
3932.65,-0.00008
3909.5,0.00179
3886.36,0.00287
3863.21,0.00189
3840.07,0.00078
3816.92,0.00142
3793.78,-0.00030
3770.63,0.00023
3747.49,0.00105
3724.34,0.00129
3701.2,0.00122
3678.06,0.00080
3654.91,0.00007
3631.77,0.00064
3608.62,0.00184
3585.48,0.00145
3562.33,0.00110
3539.19,0.00072
3516.04,0.00338
3492.9,0.00149
3469.75,0.00058
3446.61,0.00006
3423.47,0.00363
3400.32,0.00141
3377.18,0.00051
3354.03,0.00094
3330.89,0.00117
3307.74,0.00230
3284.6,0.00336
3261.45,0.00103
3238.31,0.00014
3215.16,0.00076
3192.02,0.00202
3168.87,0.00230
3145.73,0.00119
3122.59,0.00138
3099.44,0.00106
3076.3,0.00104
3053.15,0.00127
3030.01,-0.00017
3006.86,0.00090
2983.72,0.00122
2960.57,0.00081
2937.43,0.00062
2914.28,0.00152
2891.14,0.00028
2868,0.00058
2844.85,0.00102
2821.71,0.00076
2798.56,0.00058
2775.42,0.00068
2752.27,0.00109
2729.13,0.00123
2705.98,0.00076
2682.84,0.00111
2659.69,0.00025
2636.55,0.00048
2613.41,0.00039
2590.26,0.00022
2567.12,0.00103
2543.97,0.00090
2520.83,0.00080
2497.68,0.00174
2474.54,0.00049
2451.39,0.00072
2428.25,0.00082
2405.1,0.00018
2381.96,0.00105
2358.82,-0.00007
2335.67,0.00147
2312.53,0.00065
2289.38,0.00055
2266.24,0.00070
2243.09,0.00048
2219.95,0.00046
2196.8,0.00066
2173.66,0.00054
2150.51,0.00082
2127.37,0.00072
2104.23,0.00085
2081.08,0.00041
2057.94,0.00081
2034.79,0.00113
2011.65,0.00098
1988.5,0.00087
1965.36,0.00036
1942.21,0.00052
1919.07,-0.00002
1895.92,0.00055
1872.78,0.00117
1849.64,0.00022
1826.49,0.00050
1803.35,0.00018
1780.2,0.00087
1757.06,0.00135
1733.91,0.00063
1710.77,0.00073
1687.62,0.00007
1664.48,0.00088
1641.33,0.00036
1618.19,0.00095
1595.05,0.00039
1571.9,0.00018
1548.76,0.00034
1525.61,0.00060
1502.47,0.00114
1479.32,0.00073
1456.18,0.00129
1433.03,0.00149
1409.89,0.00001
1386.74,0.00093
1363.6,0.00065
1340.46,0.00053
1317.31,0.00054
1294.17,0.00057
1271.02,0.00038
1247.88,0.00011
1224.73,0.00060
1201.59,0.00092
1178.44,0.00071
1155.3,0.00214
1132.15,0.00098
1109.01,0.00144
1085.87,0.00049
1062.72,0.00119
1039.58,0.00047
1016.43,0.00082
993.287,0.00141
970.142,0.00063
946.998,0.00124
923.853,0.00083
900.709,0.00165
877.564,0.00125
854.42,0.00129
831.275,0.00106
808.131,0.00125
784.986,0.00228
761.842,0.00002
738.697,0.00108
715.552,0.00222
692.408,0.00164
669.263,0.00278
646.119,0.00227
622.974,0.00158
599.83,0.00409