File: 01_Data/PEVA/FTIR/IS/PEVA_0.10_IS_T_240808_R5.dpt
7496.93,0.03726
7473.78,0.04052
7450.64,0.05190
7427.49,0.03356
7404.35,0.03977
7381.2,0.04063
7358.06,0.04497
7334.91,0.03393
7311.77,0.03528
7288.62,0.02831
7265.48,0.02997
7242.34,0.02612
7219.19,0.03008
7196.05,0.03392
7172.9,0.03165
7149.76,0.02931
7126.61,0.03448
7103.47,0.03026
7080.32,0.04175
7057.18,0.04274
7034.03,0.03213
7010.89,0.02726
6987.74,0.02624
6964.6,0.03547
6941.46,0.02549
6918.31,0.03005
6895.17,0.03337
6872.02,0.04077
6848.88,0.03350
6825.73,0.03721
6802.59,0.02796
6779.44,0.03203
6756.3,0.03222
6733.15,0.03062
6710.01,0.03458
6686.86,0.03260
6663.72,0.03108
6640.58,0.03186
6617.43,0.03195
6594.29,0.02767
6571.14,0.03609
6548,0.03453
6524.85,0.03405
6501.71,0.03184
6478.56,0.03133
6455.42,0.03477
6432.27,0.03082
6409.13,0.03185
6385.98,0.02808
6362.84,0.02761
6339.7,0.03017
6316.55,0.02583
6293.41,0.03282
6270.26,0.02985
6247.12,0.03311
6223.97,0.02839
6200.83,0.03072
6177.68,0.02708
6154.54,0.02881
6131.39,0.03159
6108.25,0.03103
6085.1,0.02651
6061.96,0.03032
6038.82,0.02995
6015.67,0.02797
5992.53,0.02867
5969.38,0.03018
5946.24,0.02990
5923.09,0.03063
5899.95,0.03263
5876.8,0.03122
5853.66,0.02784
5830.51,0.02917
5807.37,0.02840
5784.22,0.02798
5761.08,0.03134
5737.94,0.02698
5714.79,0.02894
5691.65,0.03031
5668.5,0.03106
5645.36,0.03128
5622.21,0.03013
5599.07,0.03104
5575.92,0.03228
5552.78,0.02905
5529.63,0.03125
5506.49,0.03024
5483.34,0.02935
5460.2,0.03023
5437.06,0.03170
5413.91,0.03025
5390.77,0.02857
5367.62,0.02845
5344.48,0.02829
5321.33,0.02995
5298.19,0.02889
5275.04,0.02983
5251.9,0.03074
5228.75,0.02915
5205.61,0.02875
5182.46,0.03061
5159.32,0.03016
5136.18,0.02907
5113.03,0.03019
5089.89,0.02865
5066.74,0.02879
5043.6,0.02876
5020.45,0.02885
4997.31,0.02945
4974.16,0.03002
4951.02,0.02893
4927.87,0.02943
4904.73,0.02961
4881.58,0.02966
4858.44,0.03075
4835.3,0.03010
4812.15,0.02826
4789.01,0.02934
4765.86,0.02943
4742.72,0.02881
4719.57,0.02915
4696.43,0.03007
4673.28,0.02986
4650.14,0.02995
4626.99,0.03022
4603.85,0.02925
4580.7,0.02835
4557.56,0.03050
4534.42,0.02849
4511.27,0.02997
4488.13,0.02918
4464.98,0.02882
4441.84,0.02961
4418.69,0.02919
4395.55,0.02910
4372.4,0.02950
4349.26,0.02897
4326.11,0.02876
4302.97,0.02935
4279.82,0.02935
4256.68,0.02958
4233.54,0.03048
4210.39,0.02957
4187.25,0.02924
4164.1,0.02923
4140.96,0.02935
4117.81,0.02910
4094.67,0.02954
4071.52,0.02902
4048.38,0.02980
4025.23,0.02893
4002.09,0.02953
3978.94,0.02939
3955.8,0.02942
3932.66,0.02941
3909.51,0.02974
3886.37,0.02985
3863.22,0.02885
3840.08,0.02982
3816.93,0.02992
3793.79,0.02906
3770.64,0.02941
3747.5,0.02872
3724.35,0.02961
3701.21,0.02832
3678.06,0.03058
3654.92,0.02786
3631.78,0.02845
3608.63,0.02837
3585.49,0.02700
3562.34,0.02710
3539.2,0.02680
3516.05,0.02624
3492.91,0.02610
3469.76,0.02599
3446.62,0.02594
3423.47,0.02507
3400.33,0.02543
3377.18,0.02594
3354.04,0.02625
3330.9,0.02528
3307.75,0.02558
3284.61,0.02635
3261.46,0.02610
3238.32,0.02683
3215.17,0.02667
3192.03,0.02600
3168.88,0.02602
3145.74,0.02638
3122.59,0.02639
3099.45,0.02637
3076.3,0.02634
3053.16,0.02624
3030.02,0.02637
3006.87,0.02609
2983.73,0.02490
2960.58,0.02544
2937.44,0.02511
2914.29,0.02567
2891.15,0.02612
2868,0.02598
2844.86,0.02575
2821.71,0.02705
2798.57,0.02641
2775.42,0.02673
2752.28,0.02669
2729.14,0.02689
2705.99,0.02680
2682.85,0.02697
2659.7,0.02682
2636.56,0.02683
2613.41,0.02633
2590.27,0.02644
2567.12,0.02688
2543.98,0.02647
2520.83,0.02649
2497.69,0.02661
2474.55,0.02673
2451.4,0.02627
2428.26,0.02617
2405.11,0.02658
2381.97,0.02637
2358.82,0.02702
2335.68,0.02685
2312.53,0.02660
2289.39,0.02579
2266.24,0.02591
2243.1,0.02621
2219.95,0.02603
2196.81,0.02573
2173.67,0.02574
2150.52,0.02611
2127.38,0.02548
2104.23,0.02561
2081.09,0.02509
2057.94,0.02555
2034.8,0.02500
2011.65,0.02513
1988.51,0.02520
1965.36,0.02522
1942.22,0.02530
1919.07,0.02506
1895.93,0.02488
1872.79,0.02479
1849.64,0.02468
1826.5,0.02402
1803.35,0.02383
1780.21,0.02289
1757.06,0.02142
1733.92,0.02301
1710.77,0.02405
1687.63,0.02228
1664.48,0.02162
1641.34,0.02145
1618.19,0.02198
1595.05,0.02180
1571.91,0.02119
1548.76,0.02151
1525.62,0.02199
1502.47,0.02231
1479.33,0.02167
1456.18,0.02098
1433.04,0.02134
1409.89,0.02069
1386.75,0.02017
1363.6,0.02065
1340.46,0.02009
1317.31,0.01932
1294.17,0.02023
1271.03,0.02152
1247.88,0.02216
1224.74,0.02122
1201.59,0.02091
1178.45,0.01989
1155.3,0.01952
1132.16,0.02008
1109.01,0.02197
1085.87,0.02104
1062.72,0.02356
1039.58,0.02282
1016.43,0.02243
993.29,0.02388
970.145,0.02369
947,0.02253
923.856,0.02197
900.711,0.02240
877.567,0.02139
854.422,0.02112
831.277,0.02137
808.133,0.02148
784.988,0.02051
761.844,0.02032
738.699,0.02066
715.554,0.01941
692.41,0.01807
669.265,0.01944
646.12,0.01793
622.976,0.01915
599.831,0.01691