File: 01_Data/PEVA/FTIR/IS/PEVA_0.10_IS_Trans_S_240819_R10.dpt
7496.91,0.93712
7473.76,0.94876
7450.62,0.92194
7427.47,0.94584
7404.33,0.91929
7381.18,0.91976
7358.04,0.92867
7334.89,0.93167
7311.75,0.92499
7288.61,0.92043
7265.46,0.92951
7242.32,0.91312
7219.17,0.91146
7196.03,0.91615
7172.88,0.93001
7149.74,0.93166
7126.59,0.92953
7103.45,0.92530
7080.3,0.92222
7057.16,0.91578
7034.02,0.92389
7010.87,0.93288
6987.73,0.92490
6964.58,0.93292
6941.44,0.92180
6918.29,0.92473
6895.15,0.93046
6872,0.93340
6848.86,0.93770
6825.71,0.92812
6802.57,0.93970
6779.43,0.93692
6756.28,0.93617
6733.14,0.94309
6709.99,0.93485
6686.85,0.94549
6663.7,0.93947
6640.56,0.94453
6617.41,0.93017
6594.27,0.94911
6571.12,0.94118
6547.98,0.93822
6524.84,0.94384
6501.69,0.93928
6478.55,0.93912
6455.4,0.93402
6432.26,0.94630
6409.11,0.93594
6385.97,0.93884
6362.82,0.94004
6339.68,0.93679
6316.53,0.94790
6293.39,0.93743
6270.24,0.93706
6247.1,0.94466
6223.96,0.93742
6200.81,0.93928
6177.67,0.94510
6154.52,0.93879
6131.38,0.93503
6108.23,0.94077
6085.09,0.94013
6061.94,0.93520
6038.8,0.93648
6015.65,0.93428
5992.51,0.92779
5969.37,0.92959
5946.22,0.92826
5923.08,0.92657
5899.93,0.92211
5876.79,0.91475
5853.64,0.89556
5830.5,0.87258
5807.35,0.84705
5784.21,0.79707
5761.06,0.82726
5737.92,0.87672
5714.78,0.89196
5691.63,0.88159
5668.49,0.85796
5645.34,0.88259
5622.2,0.89656
5599.05,0.90330
5575.91,0.90023
5552.76,0.90005
5529.62,0.89479
5506.47,0.89173
5483.33,0.89948
5460.19,0.88966
5437.04,0.89494
5413.9,0.88778
5390.75,0.90493
5367.61,0.91262
5344.46,0.89251
5321.32,0.91436
5298.17,0.91614
5275.03,0.91906
5251.88,0.91079
5228.74,0.90636
5205.6,0.90181
5182.45,0.91435
5159.31,0.91331
5136.16,0.92147
5113.02,0.92012
5089.87,0.92161
5066.73,0.92234
5043.58,0.92224
5020.44,0.92239
4997.29,0.92128
4974.15,0.91962
4951.01,0.92201
4927.86,0.92262
4904.72,0.92307
4881.57,0.92100
4858.43,0.92381
4835.28,0.92499
4812.14,0.92721
4788.99,0.92972
4765.85,0.92880
4742.7,0.92873
4719.56,0.93201
4696.42,0.92930
4673.27,0.92874
4650.13,0.92996
4626.98,0.92935
4603.84,0.92971
4580.69,0.93018
4557.55,0.92704
4534.4,0.92485
4511.26,0.92231
4488.11,0.91775
4464.97,0.91125
4441.83,0.90185
4418.68,0.88303
4395.54,0.84036
4372.39,0.78631
4349.25,0.67257
4326.1,0.40269
4302.96,0.72295
4279.81,0.71285
4256.67,0.53042
4233.52,0.67377
4210.38,0.64268
4187.24,0.58683
4164.09,0.59639
4140.95,0.60589
4117.8,0.61907
4094.66,0.62369
4071.51,0.69878
4048.37,0.73072
4025.22,0.74419
4002.08,0.78849
3978.93,0.78458
3955.79,0.79480
3932.65,0.77037
3909.5,0.77681
3886.36,0.76106
3863.21,0.75809
3840.07,0.74421
3816.92,0.76003
3793.78,0.81359
3770.63,0.80789
3747.49,0.76411
3724.34,0.79209
3701.2,0.80518
3678.06,0.78022
3654.91,0.78302
3631.77,0.77889
3608.62,0.72924
3585.48,0.82726
3562.33,0.85904
3539.19,0.89027
3516.04,0.89559
3492.9,0.88913
3469.75,0.88402
3446.61,0.86967
3423.47,0.87068
3400.32,0.87203
3377.18,0.86829
3354.03,0.86818
3330.89,0.87509
3307.74,0.87966
3284.6,0.87919
3261.45,0.87494
3238.31,0.87391
3215.16,0.86248
3192.02,0.84958
3168.87,0.83894
3145.73,0.82515
3122.59,0.79561
3099.44,0.72246
3076.3,0.61675
3053.15,0.54202
3030.01,0.42197
3006.86,0.31863
2983.72,0.14118
2960.57,0.00092
2937.43,0.00075
2914.28,0.00119
2891.14,0.00075
2868,0.00112
2844.85,0.00084
2821.71,0.03945
2798.56,0.17576
2775.42,0.35418
2752.27,0.43916
2729.13,0.45206
2705.98,0.50318
2682.84,0.48717
2659.69,0.46513
2636.55,0.47645
2613.41,0.56820
2590.26,0.64546
2567.12,0.71409
2543.97,0.75171
2520.83,0.77830
2497.68,0.81601
2474.54,0.82389
2451.39,0.85150
2428.25,0.84414
2405.1,0.83601
2381.96,0.82104
2358.82,0.67492
2335.67,0.66431
2312.53,0.74658
2289.38,0.81906
2266.24,0.84189
2243.09,0.85472
2219.95,0.87181
2196.8,0.87117
2173.66,0.87541
2150.51,0.86143
2127.37,0.88150
2104.23,0.89323
2081.08,0.88442
2057.94,0.86596
2034.79,0.84515
2011.65,0.83885
1988.5,0.87977
1965.36,0.88851
1942.21,0.87100
1919.07,0.85831
1895.92,0.84669
1872.78,0.88445
1849.64,0.88756
1826.49,0.87874
1803.35,0.87156
1780.2,0.86338
1757.06,0.83449
1733.91,0.76381
1710.77,0.76849
1687.62,0.83285
1664.48,0.83687
1641.33,0.81834
1618.19,0.82088
1595.05,0.81733
1571.9,0.79165
1548.76,0.79085
1525.61,0.72402
1502.47,0.65893
1479.32,0.28098
1456.18,0.01938
1433.03,0.30568
1409.89,0.69802
1386.74,0.64437
1363.6,0.40764
1340.46,0.57983
1317.31,0.59977
1294.17,0.59280
1271.02,0.66049
1247.88,0.70744
1224.73,0.76276
1201.59,0.75989
1178.44,0.73238
1155.3,0.75987
1132.15,0.77122
1109.01,0.75231
1085.87,0.74137
1062.72,0.75476
1039.58,0.76004
1016.43,0.73223
993.287,0.81525
970.142,0.79289
946.998,0.85804
923.853,0.83573
900.709,0.82011
877.564,0.87543
854.42,0.84236
831.275,0.81907
808.131,0.85274
784.986,0.77183
761.842,0.70746
738.697,0.51137
715.552,0.13287
692.408,0.81787
669.263,0.83086
646.119,0.84996
622.974,0.91541
599.83,0.94758