File: 01_Data/PEVA/FTIR/IS/PEVA_0.18_IS_Trans_S_240819_R4.dpt
7496.91,0.93071
7473.76,0.94126
7450.62,0.93053
7427.47,0.93653
7404.33,0.91930
7381.18,0.91867
7358.04,0.93244
7334.89,0.92554
7311.75,0.92015
7288.61,0.91155
7265.46,0.91754
7242.32,0.91307
7219.17,0.89859
7196.03,0.91372
7172.88,0.89831
7149.74,0.91076
7126.59,0.91596
7103.45,0.92281
7080.3,0.91981
7057.16,0.91185
7034.02,0.91484
7010.87,0.91745
6987.73,0.92151
6964.58,0.91846
6941.44,0.91651
6918.29,0.91763
6895.15,0.92223
6872,0.92824
6848.86,0.92543
6825.71,0.91919
6802.57,0.91902
6779.43,0.93379
6756.28,0.92460
6733.14,0.94043
6709.99,0.93175
6686.85,0.93363
6663.7,0.93646
6640.56,0.93479
6617.41,0.92869
6594.27,0.92733
6571.12,0.92967
6547.98,0.92892
6524.84,0.92880
6501.69,0.93464
6478.55,0.93120
6455.4,0.92668
6432.26,0.93363
6409.11,0.93314
6385.97,0.93269
6362.82,0.94112
6339.68,0.93707
6316.53,0.93176
6293.39,0.92673
6270.24,0.93351
6247.1,0.93307
6223.96,0.93456
6200.81,0.93369
6177.67,0.92625
6154.52,0.93008
6131.38,0.92391
6108.23,0.92219
6085.09,0.92132
6061.94,0.92498
6038.8,0.92065
6015.65,0.92075
5992.51,0.92064
5969.37,0.91757
5946.22,0.90923
5923.08,0.90633
5899.93,0.90062
5876.79,0.88900
5853.64,0.85556
5830.5,0.82109
5807.35,0.78357
5784.21,0.73014
5761.06,0.77684
5737.92,0.83892
5714.78,0.85410
5691.63,0.83223
5668.49,0.80583
5645.34,0.84427
5622.2,0.86202
5599.05,0.87109
5575.91,0.87137
5552.76,0.86625
5529.62,0.86920
5506.47,0.86665
5483.33,0.87302
5460.19,0.86793
5437.04,0.87170
5413.9,0.86895
5390.75,0.88556
5367.61,0.89039
5344.46,0.87791
5321.32,0.89683
5298.17,0.89415
5275.03,0.89626
5251.88,0.89124
5228.74,0.89221
5205.6,0.88679
5182.45,0.89526
5159.31,0.89421
5136.16,0.89870
5113.02,0.89972
5089.87,0.90034
5066.73,0.89997
5043.58,0.90124
5020.44,0.90370
4997.29,0.90065
4974.15,0.89711
4951.01,0.90233
4927.86,0.90350
4904.72,0.90246
4881.57,0.90394
4858.43,0.90245
4835.28,0.90679
4812.14,0.90726
4788.99,0.90844
4765.85,0.90552
4742.7,0.90676
4719.56,0.90568
4696.42,0.90332
4673.27,0.89593
4650.13,0.90491
4626.98,0.90786
4603.84,0.90758
4580.69,0.90633
4557.55,0.90455
4534.4,0.89994
4511.26,0.89278
4488.11,0.88208
4464.97,0.86591
4441.83,0.83242
4418.68,0.80218
4395.54,0.74990
4372.39,0.66727
4349.25,0.50883
4326.1,0.27797
4302.96,0.59221
4279.81,0.57311
4256.67,0.38349
4233.52,0.52960
4210.38,0.50086
4187.24,0.44897
4164.09,0.46356
4140.95,0.48037
4117.8,0.49657
4094.66,0.50639
4071.51,0.58084
4048.37,0.61035
4025.22,0.62996
4002.08,0.68510
3978.93,0.68026
3955.79,0.69831
3932.65,0.68844
3909.5,0.69351
3886.36,0.68761
3863.21,0.69436
3840.07,0.69361
3816.92,0.70330
3793.78,0.74629
3770.63,0.75168
3747.49,0.73067
3724.34,0.74796
3701.2,0.74903
3678.06,0.71974
3654.91,0.70597
3631.77,0.70824
3608.62,0.66094
3585.48,0.77073
3562.33,0.79897
3539.19,0.81836
3516.04,0.82341
3492.9,0.81450
3469.75,0.72305
3446.61,0.69110
3423.47,0.79133
3400.32,0.80534
3377.18,0.79398
3354.03,0.80454
3330.89,0.81490
3307.74,0.81772
3284.6,0.81730
3261.45,0.81186
3238.31,0.80509
3215.16,0.78723
3192.02,0.76552
3168.87,0.74301
3145.73,0.72019
3122.59,0.67819
3099.44,0.58332
3076.3,0.45839
3053.15,0.36261
3030.01,0.22962
3006.86,0.14033
2983.72,0.03327
2960.57,0.00077
2937.43,0.00038
2914.28,0.00066
2891.14,0.00050
2868,0.00033
2844.85,0.00067
2821.71,0.00837
2798.56,0.07902
2775.42,0.20979
2752.27,0.27157
2729.13,0.29231
2705.98,0.34319
2682.84,0.31428
2659.69,0.31907
2636.55,0.34251
2613.41,0.43051
2590.26,0.51493
2567.12,0.60244
2543.97,0.65057
2520.83,0.67322
2497.68,0.69939
2474.54,0.68606
2451.39,0.74346
2428.25,0.75207
2405.1,0.74080
2381.96,0.73469
2358.82,0.64417
2335.67,0.61232
2312.53,0.65963
2289.38,0.71697
2266.24,0.74290
2243.09,0.76110
2219.95,0.79019
2196.8,0.77430
2173.66,0.74575
2150.51,0.73600
2127.37,0.78188
2104.23,0.79426
2081.08,0.79036
2057.94,0.76981
2034.79,0.72573
2011.65,0.72707
1988.5,0.78921
1965.36,0.78688
1942.21,0.77317
1919.07,0.75643
1895.92,0.70524
1872.78,0.69937
1849.64,0.69428
1826.49,0.63431
1803.35,0.54725
1780.2,0.38334
1757.06,0.04951
1733.91,0.00073
1710.77,0.15398
1687.62,0.34497
1664.48,0.52650
1641.33,0.55331
1618.19,0.64235
1595.05,0.65274
1571.9,0.61690
1548.76,0.57898
1525.61,0.51325
1502.47,0.43165
1479.32,0.10932
1456.18,0.00097
1433.03,0.02291
1409.89,0.26571
1386.74,0.07664
1363.6,0.00247
1340.46,0.21914
1317.31,0.24220
1294.17,0.12529
1271.02,0.01599
1247.88,0.00035
1224.73,0.00055
1201.59,0.08903
1178.44,0.20590
1155.3,0.17774
1132.15,0.12044
1109.01,0.15590
1085.87,0.12404
1062.72,0.07444
1039.58,0.02404
1016.43,0.00200
993.287,0.20592
970.142,0.18117
946.998,0.17115
923.853,0.38287
900.709,0.48278
877.564,0.49991
854.42,0.52906
831.275,0.60023
808.131,0.58280
784.986,0.61959
761.842,0.56227
738.697,0.30696
715.552,0.04934
692.408,0.70517
669.263,0.71581
646.119,0.57341
622.974,0.53863
599.83,0.51779