File: 01_Data/PEVA/FTIR/IS/PEVA_0.18_IS_Trans_S_240819_R10.dpt
7496.91,0.95013
7473.76,0.93169
7450.62,0.92892
7427.47,0.93387
7404.33,0.92901
7381.18,0.93988
7358.04,0.92762
7334.89,0.91226
7311.75,0.93250
7288.61,0.92863
7265.46,0.92340
7242.32,0.92271
7219.17,0.92451
7196.03,0.91015
7172.88,0.91614
7149.74,0.91551
7126.59,0.91393
7103.45,0.91298
7080.3,0.91580
7057.16,0.90841
7034.02,0.92071
7010.87,0.92583
6987.73,0.92630
6964.58,0.91445
6941.44,0.91221
6918.29,0.91496
6895.15,0.92479
6872,0.92413
6848.86,0.92449
6825.71,0.92756
6802.57,0.92309
6779.43,0.93006
6756.28,0.92212
6733.14,0.93502
6709.99,0.93423
6686.85,0.93075
6663.7,0.93234
6640.56,0.93215
6617.41,0.93220
6594.27,0.93336
6571.12,0.93085
6547.98,0.92871
6524.84,0.93037
6501.69,0.93161
6478.55,0.92827
6455.4,0.93400
6432.26,0.93355
6409.11,0.93210
6385.97,0.93809
6362.82,0.93499
6339.68,0.93505
6316.53,0.93347
6293.39,0.92816
6270.24,0.93210
6247.1,0.93049
6223.96,0.93172
6200.81,0.93158
6177.67,0.93021
6154.52,0.93135
6131.38,0.92801
6108.23,0.92777
6085.09,0.92733
6061.94,0.92494
6038.8,0.91977
6015.65,0.91694
5992.51,0.92049
5969.37,0.91606
5946.22,0.91110
5923.08,0.90700
5899.93,0.90271
5876.79,0.88748
5853.64,0.85265
5830.5,0.81737
5807.35,0.78705
5784.21,0.73194
5761.06,0.77873
5737.92,0.84208
5714.78,0.85321
5691.63,0.83611
5668.49,0.81243
5645.34,0.84686
5622.2,0.86372
5599.05,0.87162
5575.91,0.87049
5552.76,0.86713
5529.62,0.87249
5506.47,0.86944
5483.33,0.87661
5460.19,0.87322
5437.04,0.87727
5413.9,0.87609
5390.75,0.88624
5367.61,0.89215
5344.46,0.88603
5321.32,0.89918
5298.17,0.89939
5275.03,0.89894
5251.88,0.89533
5228.74,0.89512
5205.6,0.89294
5182.45,0.89628
5159.31,0.89585
5136.16,0.90043
5113.02,0.90126
5089.87,0.90133
5066.73,0.90266
5043.58,0.90501
5020.44,0.90389
4997.29,0.90193
4974.15,0.90161
4951.01,0.90237
4927.86,0.90498
4904.72,0.90463
4881.57,0.90391
4858.43,0.90480
4835.28,0.90588
4812.14,0.90854
4788.99,0.90850
4765.85,0.90790
4742.7,0.91006
4719.56,0.90834
4696.42,0.90539
4673.27,0.89751
4650.13,0.90520
4626.98,0.90755
4603.84,0.90973
4580.69,0.90873
4557.55,0.90646
4534.4,0.90199
4511.26,0.89519
4488.11,0.88309
4464.97,0.86749
4441.83,0.83431
4418.68,0.80479
4395.54,0.75192
4372.39,0.66906
4349.25,0.51153
4326.1,0.27972
4302.96,0.59545
4279.81,0.57521
4256.67,0.38566
4233.52,0.53241
4210.38,0.50406
4187.24,0.45054
4164.09,0.46681
4140.95,0.48316
4117.8,0.49950
4094.66,0.50939
4071.51,0.58391
4048.37,0.61420
4025.22,0.63334
4002.08,0.68836
3978.93,0.68303
3955.79,0.70075
3932.65,0.69322
3909.5,0.69526
3886.36,0.69431
3863.21,0.70432
3840.07,0.70535
3816.92,0.71297
3793.78,0.75119
3770.63,0.75674
3747.49,0.74385
3724.34,0.75697
3701.2,0.75397
3678.06,0.72625
3654.91,0.70888
3631.77,0.71164
3608.62,0.66506
3585.48,0.77412
3562.33,0.79831
3539.19,0.81678
3516.04,0.82250
3492.9,0.81458
3469.75,0.72452
3446.61,0.69323
3423.47,0.79178
3400.32,0.80538
3377.18,0.79447
3354.03,0.80562
3330.89,0.81536
3307.74,0.81890
3284.6,0.81695
3261.45,0.81241
3238.31,0.80335
3215.16,0.78881
3192.02,0.76679
3168.87,0.74410
3145.73,0.72083
3122.59,0.67960
3099.44,0.58495
3076.3,0.46023
3053.15,0.36410
3030.01,0.23187
3006.86,0.14214
2983.72,0.03351
2960.57,0.00057
2937.43,0.00026
2914.28,0.00057
2891.14,0.00075
2868,0.00012
2844.85,0.00028
2821.71,0.00875
2798.56,0.08002
2775.42,0.21161
2752.27,0.27331
2729.13,0.29370
2705.98,0.34544
2682.84,0.31636
2659.69,0.32178
2636.55,0.34508
2613.41,0.43294
2590.26,0.51802
2567.12,0.60507
2543.97,0.65254
2520.83,0.67528
2497.68,0.70163
2474.54,0.68890
2451.39,0.74655
2428.25,0.75553
2405.1,0.74331
2381.96,0.73978
2358.82,0.66898
2335.67,0.63121
2312.53,0.66880
2289.38,0.72074
2266.24,0.74635
2243.09,0.76415
2219.95,0.79235
2196.8,0.77665
2173.66,0.74841
2150.51,0.73951
2127.37,0.78573
2104.23,0.79762
2081.08,0.79197
2057.94,0.76991
2034.79,0.72661
2011.65,0.72911
1988.5,0.79388
1965.36,0.79216
1942.21,0.77804
1919.07,0.75960
1895.92,0.70760
1872.78,0.70273
1849.64,0.69876
1826.49,0.63922
1803.35,0.55128
1780.2,0.38778
1757.06,0.05078
1733.91,0.00137
1710.77,0.15316
1687.62,0.34899
1664.48,0.52910
1641.33,0.55499
1618.19,0.64436
1595.05,0.65412
1571.9,0.62088
1548.76,0.58491
1525.61,0.52390
1502.47,0.43559
1479.32,0.11156
1456.18,0.00081
1433.03,0.02335
1409.89,0.26759
1386.74,0.07717
1363.6,0.00246
1340.46,0.22102
1317.31,0.24479
1294.17,0.12687
1271.02,0.01576
1247.88,0.00039
1224.73,0.00027
1201.59,0.09023
1178.44,0.20723
1155.3,0.17881
1132.15,0.12203
1109.01,0.15755
1085.87,0.12589
1062.72,0.07583
1039.58,0.02489
1016.43,0.00170
993.287,0.20693
970.142,0.18314
946.998,0.17326
923.853,0.38673
900.709,0.48413
877.564,0.50090
854.42,0.52975
831.275,0.60063
808.131,0.58800
784.986,0.62725
761.842,0.56509
738.697,0.30802
715.552,0.04961
692.408,0.70717
669.263,0.72256
646.119,0.57452
622.974,0.54520
599.83,0.52216