File: 01_Data/PEVA/FTIR/IS/PEVA_0.10_IS_Trans_S_240819_R1.dpt
7496.91,0.94128
7473.76,0.92630
7450.62,0.95009
7427.47,0.94433
7404.33,0.92582
7381.18,0.91505
7358.04,0.92808
7334.89,0.93982
7311.75,0.91444
7288.61,0.92482
7265.46,0.94259
7242.32,0.89933
7219.17,0.91165
7196.03,0.90703
7172.88,0.92322
7149.74,0.91896
7126.59,0.91941
7103.45,0.91312
7080.3,0.91655
7057.16,0.92664
7034.02,0.93615
7010.87,0.93014
6987.73,0.92323
6964.58,0.92886
6941.44,0.93114
6918.29,0.92673
6895.15,0.93209
6872,0.93165
6848.86,0.93465
6825.71,0.94173
6802.57,0.92678
6779.43,0.94074
6756.28,0.93336
6733.14,0.92762
6709.99,0.94583
6686.85,0.93734
6663.7,0.94427
6640.56,0.93761
6617.41,0.94141
6594.27,0.93737
6571.12,0.94238
6547.98,0.94169
6524.84,0.93943
6501.69,0.93831
6478.55,0.92782
6455.4,0.93674
6432.26,0.93403
6409.11,0.94502
6385.97,0.93558
6362.82,0.95234
6339.68,0.93819
6316.53,0.93347
6293.39,0.93421
6270.24,0.93813
6247.1,0.93630
6223.96,0.93900
6200.81,0.93998
6177.67,0.93700
6154.52,0.93767
6131.38,0.93758
6108.23,0.93396
6085.09,0.93310
6061.94,0.93504
6038.8,0.92958
6015.65,0.93073
5992.51,0.92692
5969.37,0.92853
5946.22,0.92550
5923.08,0.92367
5899.93,0.91949
5876.79,0.90912
5853.64,0.88850
5830.5,0.86987
5807.35,0.84358
5784.21,0.79252
5761.06,0.82648
5737.92,0.87789
5714.78,0.88749
5691.63,0.87537
5668.49,0.85330
5645.34,0.88472
5622.2,0.89499
5599.05,0.89949
5575.91,0.89568
5552.76,0.89303
5529.62,0.89635
5506.47,0.88336
5483.33,0.89821
5460.19,0.88743
5437.04,0.88594
5413.9,0.87635
5390.75,0.90174
5367.61,0.90642
5344.46,0.87918
5321.32,0.91352
5298.17,0.90688
5275.03,0.91449
5251.88,0.90249
5228.74,0.90047
5205.6,0.89176
5182.45,0.90721
5159.31,0.91130
5136.16,0.91799
5113.02,0.91913
5089.87,0.91671
5066.73,0.91883
5043.58,0.92078
5020.44,0.91817
4997.29,0.91745
4974.15,0.91808
4951.01,0.91823
4927.86,0.92046
4904.72,0.92088
4881.57,0.91915
4858.43,0.92028
4835.28,0.92354
4812.14,0.92175
4788.99,0.92555
4765.85,0.92745
4742.7,0.92378
4719.56,0.92700
4696.42,0.92903
4673.27,0.92465
4650.13,0.92714
4626.98,0.92932
4603.84,0.92461
4580.69,0.92641
4557.55,0.92507
4534.4,0.92004
4511.26,0.92228
4488.11,0.91530
4464.97,0.90659
4441.83,0.90091
4418.68,0.88116
4395.54,0.83680
4372.39,0.78544
4349.25,0.67114
4326.1,0.40205
4302.96,0.72371
4279.81,0.71060
4256.67,0.53026
4233.52,0.67246
4210.38,0.64108
4187.24,0.58533
4164.09,0.59697
4140.95,0.60375
4117.8,0.61828
4094.66,0.62213
4071.51,0.69629
4048.37,0.73092
4025.22,0.74119
4002.08,0.78552
3978.93,0.78444
3955.79,0.78968
3932.65,0.76293
3909.5,0.77490
3886.36,0.75128
3863.21,0.74211
3840.07,0.72620
3816.92,0.74169
3793.78,0.80611
3770.63,0.79917
3747.49,0.73633
3724.34,0.75888
3701.2,0.78375
3678.06,0.76019
3654.91,0.77199
3631.77,0.75773
3608.62,0.70920
3585.48,0.81049
3562.33,0.84788
3539.19,0.88211
3516.04,0.88959
3492.9,0.88452
3469.75,0.87970
3446.61,0.86422
3423.47,0.86554
3400.32,0.86879
3377.18,0.86472
3354.03,0.86534
3330.89,0.87421
3307.74,0.87654
3284.6,0.87459
3261.45,0.87437
3238.31,0.87358
3215.16,0.85955
3192.02,0.84893
3168.87,0.83999
3145.73,0.82443
3122.59,0.79163
3099.44,0.72112
3076.3,0.61896
3053.15,0.54487
3030.01,0.42450
3006.86,0.32240
2983.72,0.14371
2960.57,0.00146
2937.43,0.00078
2914.28,0.00123
2891.14,0.00042
2868,0.00142
2844.85,0.00121
2821.71,0.04085
2798.56,0.17731
2775.42,0.35654
2752.27,0.44184
2729.13,0.45503
2705.98,0.50482
2682.84,0.48670
2659.69,0.46500
2636.55,0.47889
2613.41,0.56896
2590.26,0.64370
2567.12,0.71651
2543.97,0.75463
2520.83,0.77459
2497.68,0.81519
2474.54,0.82674
2451.39,0.84847
2428.25,0.84180
2405.1,0.83939
2381.96,0.77266
2358.82,0.45744
2335.67,0.49876
2312.53,0.64801
2289.38,0.80011
2266.24,0.83385
2243.09,0.84921
2219.95,0.87230
2196.8,0.87136
2173.66,0.87129
2150.51,0.86253
2127.37,0.88074
2104.23,0.88819
2081.08,0.88746
2057.94,0.86429
2034.79,0.84076
2011.65,0.84227
1988.5,0.87465
1965.36,0.88168
1942.21,0.87249
1919.07,0.84988
1895.92,0.84118
1872.78,0.88767
1849.64,0.87953
1826.49,0.86822
1803.35,0.87395
1780.2,0.85170
1757.06,0.83461
1733.91,0.76352
1710.77,0.77911
1687.62,0.82043
1664.48,0.83488
1641.33,0.80458
1618.19,0.80988
1595.05,0.81731
1571.9,0.77822
1548.76,0.77787
1525.61,0.70878
1502.47,0.65182
1479.32,0.27945
1456.18,0.01938
1433.03,0.30635
1409.89,0.70292
1386.74,0.64293
1363.6,0.40707
1340.46,0.57931
1317.31,0.60030
1294.17,0.59587
1271.02,0.66617
1247.88,0.71421
1224.73,0.76472
1201.59,0.76636
1178.44,0.74059
1155.3,0.76407
1132.15,0.77556
1109.01,0.76101
1085.87,0.73801
1062.72,0.76052
1039.58,0.76594
1016.43,0.72836
993.287,0.82156
970.142,0.79854
946.998,0.85004
923.853,0.84689
900.709,0.82453
877.564,0.86474
854.42,0.85173
831.275,0.82411
808.131,0.84013
784.986,0.78079
761.842,0.71119
738.697,0.50998
715.552,0.13386
692.408,0.77574
669.263,0.73881
646.119,0.83386
622.974,0.89911
599.83,0.94651