File: 01_Data/PEVA/FTIR/IS/PEVA_0.26_IS_T_240809_R1.dpt
7497.2,0.04594
7474.05,0.03102
7450.91,0.03666
7427.76,0.02973
7404.62,0.04227
7381.47,0.03018
7358.33,0.04323
7335.18,0.02679
7312.04,0.03266
7288.89,0.03006
7265.75,0.02914
7242.6,0.03061
7219.45,0.03588
7196.31,0.03062
7173.16,0.03715
7150.02,0.03731
7126.87,0.04136
7103.73,0.03106
7080.58,0.03019
7057.44,0.03264
7034.29,0.03059
7011.15,0.03522
6988,0.03430
6964.85,0.03240
6941.71,0.03177
6918.56,0.02841
6895.42,0.02982
6872.27,0.03404
6849.13,0.03203
6825.98,0.03030
6802.84,0.03274
6779.69,0.03580
6756.55,0.03254
6733.4,0.03267
6710.25,0.03606
6687.11,0.02082
6663.96,0.03168
6640.82,0.02985
6617.67,0.03478
6594.53,0.03525
6571.38,0.03398
6548.24,0.03323
6525.09,0.03330
6501.95,0.02721
6478.8,0.03129
6455.65,0.02641
6432.51,0.02915
6409.36,0.03109
6386.22,0.03482
6363.07,0.03479
6339.93,0.03275
6316.78,0.03103
6293.64,0.02983
6270.49,0.03105
6247.34,0.02904
6224.2,0.03509
6201.05,0.03263
6177.91,0.03389
6154.76,0.03189
6131.62,0.03111
6108.47,0.03705
6085.33,0.02999
6062.18,0.02679
6039.04,0.03070
6015.89,0.02657
5992.74,0.02711
5969.6,0.03111
5946.45,0.03031
5923.31,0.03041
5900.16,0.03108
5877.02,0.02958
5853.87,0.02982
5830.73,0.03229
5807.58,0.03204
5784.44,0.02613
5761.29,0.03089
5738.14,0.02912
5715,0.03059
5691.85,0.03028
5668.71,0.03087
5645.56,0.03101
5622.42,0.03012
5599.27,0.03067
5576.13,0.02817
5552.98,0.02927
5529.84,0.02988
5506.69,0.02945
5483.54,0.03036
5460.4,0.03042
5437.25,0.03105
5414.11,0.03115
5390.96,0.03110
5367.82,0.03130
5344.67,0.03007
5321.53,0.02999
5298.38,0.03017
5275.24,0.03069
5252.09,0.03181
5228.94,0.02873
5205.8,0.02933
5182.65,0.02977
5159.51,0.03047
5136.36,0.02965
5113.22,0.03068
5090.07,0.02991
5066.93,0.03020
5043.78,0.02920
5020.64,0.03117
4997.49,0.03079
4974.34,0.03089
4951.2,0.03054
4928.05,0.03085
4904.91,0.03190
4881.76,0.03184
4858.62,0.03035
4835.47,0.03049
4812.33,0.03239
4789.18,0.03020
4766.04,0.02985
4742.89,0.03168
4719.74,0.03118
4696.6,0.03252
4673.45,0.03114
4650.31,0.03090
4627.16,0.03059
4604.02,0.02997
4580.87,0.03193
4557.73,0.02978
4534.58,0.03168
4511.44,0.03054
4488.29,0.03033
4465.14,0.03096
4442,0.03110
4418.85,0.03076
4395.71,0.03084
4372.56,0.03104
4349.42,0.03058
4326.27,0.03035
4303.13,0.03077
4279.98,0.03114
4256.84,0.03022
4233.69,0.03054
4210.54,0.03075
4187.4,0.03067
4164.25,0.03057
4141.11,0.03060
4117.96,0.03071
4094.82,0.03114
4071.67,0.03066
4048.53,0.03095
4025.38,0.03039
4002.24,0.03068
3979.09,0.03061
3955.94,0.03034
3932.8,0.03075
3909.65,0.03037
3886.51,0.03065
3863.36,0.03087
3840.22,0.03098
3817.07,0.03032
3793.93,0.03018
3770.78,0.03052
3747.64,0.03111
3724.49,0.02923
3701.34,0.03031
3678.2,0.03049
3655.05,0.02901
3631.91,0.02902
3608.76,0.02923
3585.62,0.02759
3562.47,0.02791
3539.33,0.02777
3516.18,0.02777
3493.04,0.02736
3469.89,0.02737
3446.74,0.02651
3423.6,0.02676
3400.45,0.02618
3377.31,0.02695
3354.16,0.02690
3331.02,0.02691
3307.87,0.02639
3284.73,0.02699
3261.58,0.02663
3238.44,0.02741
3215.29,0.02755
3192.14,0.02648
3169,0.02750
3145.85,0.02691
3122.71,0.02776
3099.56,0.02688
3076.42,0.02759
3053.27,0.02742
3030.13,0.02693
3006.98,0.02719
2983.84,0.02662
2960.69,0.02614
2937.54,0.02603
2914.4,0.02643
2891.25,0.02683
2868.11,0.02685
2844.96,0.02684
2821.82,0.02798
2798.67,0.02798
2775.53,0.02785
2752.38,0.02764
2729.24,0.02785
2706.09,0.02755
2682.94,0.02761
2659.8,0.02785
2636.65,0.02757
2613.51,0.02769
2590.36,0.02770
2567.22,0.02739
2544.07,0.02736
2520.93,0.02745
2497.78,0.02737
2474.64,0.02718
2451.49,0.02717
2428.34,0.02710
2405.2,0.02699
2382.05,0.02718
2358.91,0.02699
2335.76,0.02698
2312.62,0.02745
2289.47,0.02696
2266.33,0.02685
2243.18,0.02713
2220.04,0.02709
2196.89,0.02669
2173.74,0.02661
2150.6,0.02681
2127.45,0.02655
2104.31,0.02649
2081.16,0.02617
2058.02,0.02665
2034.87,0.02657
2011.73,0.02585
1988.58,0.02603
1965.44,0.02607
1942.29,0.02591
1919.14,0.02542
1896,0.02533
1872.85,0.02554
1849.71,0.02512
1826.56,0.02530
1803.42,0.02493
1780.27,0.02363
1757.13,0.02165
1733.98,0.02373
1710.84,0.02468
1687.69,0.02331
1664.54,0.02243
1641.4,0.02279
1618.25,0.02297
1595.11,0.02285
1571.96,0.02215
1548.82,0.02230
1525.67,0.02229
1502.53,0.02274
1479.38,0.02223
1456.24,0.02245
1433.09,0.02210
1409.94,0.02150
1386.8,0.02094
1363.65,0.02126
1340.51,0.02087
1317.36,0.01998
1294.22,0.02073
1271.07,0.02194
1247.93,0.02321
1224.78,0.02251
1201.64,0.02220
1178.49,0.02108
1155.34,0.02022
1132.2,0.02099
1109.05,0.02243
1085.91,0.02235
1062.76,0.02477
1039.62,0.02370
1016.47,0.02333
993.326,0.02482
970.18,0.02369
947.035,0.02337
923.89,0.02321
900.744,0.02290
877.599,0.02282
854.453,0.02231
831.308,0.02206
808.162,0.02190
785.017,0.02030
761.871,0.02023
738.726,0.02080
715.58,0.01987
692.435,0.02009
669.29,0.01912
646.144,0.01912
622.999,0.01927
599.853,0.02139