File: 01_Data/PEVA/FTIR/IS/PEVA_0.10_IS_S_240808_R8.dpt
7496.93,0.08921
7473.78,0.10356
7450.64,0.10243
7427.49,0.09984
7404.35,0.09345
7381.2,0.11629
7358.06,0.09632
7334.91,0.09590
7311.77,0.09167
7288.62,0.09625
7265.48,0.10329
7242.34,0.08901
7219.19,0.09070
7196.05,0.09958
7172.9,0.09864
7149.76,0.09668
7126.61,0.08928
7103.47,0.09624
7080.32,0.09794
7057.18,0.08716
7034.03,0.09340
7010.89,0.08519
6987.74,0.09207
6964.6,0.09296
6941.46,0.09495
6918.31,0.09634
6895.17,0.09323
6872.02,0.10136
6848.88,0.09689
6825.73,0.09281
6802.59,0.09355
6779.44,0.09484
6756.3,0.09633
6733.15,0.09055
6710.01,0.09517
6686.86,0.09351
6663.72,0.09550
6640.58,0.09604
6617.43,0.09537
6594.29,0.09535
6571.14,0.09578
6548,0.09590
6524.85,0.09286
6501.71,0.09177
6478.56,0.09963
6455.42,0.09988
6432.27,0.10309
6409.13,0.09876
6385.98,0.09904
6362.84,0.09282
6339.7,0.09614
6316.55,0.10109
6293.41,0.09747
6270.26,0.09393
6247.12,0.09770
6223.97,0.09411
6200.83,0.09877
6177.68,0.09451
6154.54,0.09840
6131.39,0.09420
6108.25,0.10120
6085.1,0.09838
6061.96,0.09627
6038.82,0.09408
6015.67,0.09811
5992.53,0.10091
5969.38,0.09670
5946.24,0.09650
5923.09,0.09657
5899.95,0.09660
5876.8,0.09278
5853.66,0.08986
5830.51,0.09189
5807.37,0.09034
5784.22,0.08450
5761.08,0.08806
5737.94,0.09475
5714.79,0.09678
5691.65,0.09477
5668.5,0.09305
5645.36,0.09571
5622.21,0.09553
5599.07,0.09783
5575.92,0.09542
5552.78,0.09714
5529.63,0.09713
5506.49,0.09538
5483.34,0.09786
5460.2,0.09684
5437.06,0.09570
5413.91,0.09582
5390.77,0.09814
5367.62,0.09536
5344.48,0.09838
5321.33,0.09775
5298.19,0.09770
5275.04,0.09810
5251.9,0.09836
5228.75,0.09589
5205.61,0.09864
5182.46,0.09720
5159.32,0.09731
5136.18,0.09725
5113.03,0.09775
5089.89,0.09756
5066.74,0.09841
5043.6,0.09798
5020.45,0.09882
4997.31,0.09949
4974.16,0.09648
4951.02,0.09970
4927.87,0.09885
4904.73,0.09895
4881.58,0.10022
4858.44,0.09876
4835.3,0.09912
4812.15,0.09872
4789.01,0.09846
4765.86,0.10033
4742.72,0.10063
4719.57,0.10066
4696.43,0.10070
4673.28,0.10028
4650.14,0.09974
4626.99,0.09982
4603.85,0.09898
4580.7,0.10142
4557.56,0.10010
4534.42,0.09929
4511.27,0.10032
4488.13,0.09925
4464.98,0.09828
4441.84,0.09952
4418.69,0.09669
4395.55,0.09156
4372.4,0.08938
4349.26,0.08044
4326.11,0.06616
4302.97,0.08499
4279.82,0.08338
4256.68,0.07167
4233.54,0.08124
4210.39,0.07823
4187.25,0.07565
4164.1,0.07642
4140.96,0.07697
4117.81,0.07873
4094.67,0.07804
4071.52,0.08180
4048.38,0.08593
4025.23,0.08556
4002.09,0.08898
3978.94,0.08992
3955.8,0.08984
3932.66,0.08927
3909.51,0.08978
3886.37,0.08849
3863.22,0.09004
3840.08,0.09132
3816.93,0.09001
3793.79,0.09244
3770.64,0.09286
3747.5,0.09341
3724.35,0.09271
3701.21,0.09332
3678.06,0.09259
3654.92,0.09006
3631.78,0.09054
3608.63,0.08659
3585.49,0.09346
3562.34,0.09562
3539.2,0.09634
3516.05,0.09582
3492.91,0.09540
3469.76,0.09501
3446.62,0.09358
3423.47,0.09347
3400.33,0.09432
3377.18,0.09200
3354.04,0.09202
3330.9,0.09416
3307.75,0.09309
3284.61,0.09231
3261.46,0.09548
3238.32,0.09330
3215.17,0.09056
3192.03,0.09145
3168.88,0.09081
3145.74,0.08690
3122.59,0.08376
3099.45,0.07984
3076.3,0.07398
3053.16,0.06886
3030.02,0.06250
3006.87,0.05782
2983.73,0.05142
2960.58,0.04723
2937.44,0.03892
2914.29,0.08765
2891.15,0.06760
2868,0.05830
2844.86,0.08414
2821.71,0.06819
2798.57,0.06666
2775.42,0.07130
2752.28,0.07400
2729.14,0.07349
2705.99,0.07448
2682.85,0.07295
2659.7,0.07315
2636.56,0.07337
2613.41,0.07688
2590.27,0.08260
2567.12,0.08844
2543.98,0.08964
2520.83,0.09136
2497.69,0.09575
2474.55,0.09499
2451.4,0.09679
2428.26,0.09728
2405.11,0.09569
2381.97,0.09628
2358.82,0.09492
2335.68,0.08899
2312.53,0.09213
2289.39,0.09566
2266.24,0.09496
2243.1,0.09690
2219.95,0.09937
2196.81,0.09683
2173.67,0.09894
2150.52,0.09852
2127.38,0.09692
2104.23,0.10142
2081.09,0.09974
2057.94,0.09438
2034.8,0.09752
2011.65,0.09509
1988.51,0.09552
1965.36,0.10275
1942.22,0.09867
1919.07,0.09439
1895.93,0.09964
1872.79,0.09776
1849.64,0.09633
1826.5,0.10447
1803.35,0.09587
1780.21,0.09436
1757.06,0.10074
1733.92,0.09029
1710.77,0.09083
1687.63,0.10302
1664.48,0.08988
1641.34,0.09054
1618.19,0.09973
1595.05,0.08738
1571.91,0.08806
1548.76,0.09680
1525.62,0.08541
1502.47,0.07388
1479.33,0.05676
1456.18,0.06070
1433.04,0.06415
1409.89,0.07845
1386.75,0.07536
1363.6,0.07075
1340.46,0.07161
1317.31,0.07308
1294.17,0.08269
1271.03,0.07654
1247.88,0.08252
1224.74,0.09775
1201.59,0.08344
1178.45,0.08296
1155.3,0.09869
1132.16,0.08306
1109.01,0.08624
1085.87,0.09986
1062.72,0.08314
1039.58,0.09064
1016.43,0.10676
993.29,0.08266
970.145,0.09284
947,0.11261
923.856,0.07628
900.711,0.09655
877.567,0.11354
854.422,0.06996
831.277,0.10005
808.133,0.11240
784.988,0.06142
761.844,0.08436
738.699,0.08225
715.554,0.06798
692.41,0.12297
669.265,0.07028
646.12,0.08334
622.976,0.14381
599.831,0.06994