File: 01_Data/PEVA/FTIR/IS/PEVA_0.18_IS_S_240809_R4.dpt
7497.33,0.10296
7474.19,0.09759
7451.04,0.10210
7427.9,0.10101
7404.75,0.10620
7381.6,0.11615
7358.46,0.10201
7335.31,0.10303
7312.17,0.10259
7289.02,0.09647
7265.87,0.08887
7242.73,0.09333
7219.58,0.10680
7196.44,0.09878
7173.29,0.09885
7150.15,0.09667
7127,0.10102
7103.85,0.09961
7080.71,0.10033
7057.56,0.09332
7034.42,0.09668
7011.27,0.10373
6988.12,0.10262
6964.98,0.09364
6941.83,0.09301
6918.69,0.09697
6895.54,0.10081
6872.39,0.09878
6849.25,0.09715
6826.1,0.09889
6802.96,0.09780
6779.81,0.10371
6756.67,0.09362
6733.52,0.09915
6710.37,0.09995
6687.23,0.10444
6664.08,0.09862
6640.94,0.09953
6617.79,0.09987
6594.64,0.10057
6571.5,0.10098
6548.35,0.10018
6525.21,0.09884
6502.06,0.09486
6478.92,0.09787
6455.77,0.09882
6432.62,0.10151
6409.48,0.10112
6386.33,0.10378
6363.19,0.10108
6340.04,0.09995
6316.89,0.10061
6293.75,0.10206
6270.6,0.10037
6247.46,0.09873
6224.31,0.10144
6201.16,0.10125
6178.02,0.09990
6154.87,0.09917
6131.73,0.09799
6108.58,0.09928
6085.44,0.10187
6062.29,0.09991
6039.14,0.10041
6016,0.09729
5992.85,0.09832
5969.71,0.10099
5946.56,0.10089
5923.41,0.09679
5900.27,0.09593
5877.12,0.09421
5853.98,0.09522
5830.83,0.08980
5807.68,0.08880
5784.54,0.08143
5761.39,0.08947
5738.25,0.09161
5715.1,0.09561
5691.96,0.09188
5668.81,0.08969
5645.66,0.09077
5622.52,0.09521
5599.37,0.09788
5576.23,0.09573
5553.08,0.09621
5529.93,0.09622
5506.79,0.09413
5483.64,0.09569
5460.5,0.09702
5437.35,0.09642
5414.21,0.09664
5391.06,0.09998
5367.91,0.09838
5344.77,0.09743
5321.62,0.09830
5298.48,0.09861
5275.33,0.09830
5252.18,0.09738
5229.04,0.09807
5205.89,0.09933
5182.75,0.10025
5159.6,0.09880
5136.45,0.10000
5113.31,0.09918
5090.16,0.09865
5067.02,0.09862
5043.87,0.09810
5020.73,0.09950
4997.58,0.09949
4974.43,0.09893
4951.29,0.10032
4928.14,0.10019
4905,0.09983
4881.85,0.10032
4858.7,0.10044
4835.56,0.10005
4812.41,0.09998
4789.27,0.10048
4766.12,0.10254
4742.97,0.10126
4719.83,0.10190
4696.68,0.10136
4673.54,0.09959
4650.39,0.10054
4627.25,0.10097
4604.1,0.09989
4580.95,0.09976
4557.81,0.10066
4534.66,0.10010
4511.52,0.09927
4488.37,0.09937
4465.22,0.09842
4442.08,0.09468
4418.93,0.09193
4395.79,0.08729
4372.64,0.08075
4349.49,0.07229
4326.35,0.06232
4303.2,0.07754
4280.06,0.07697
4256.91,0.06720
4233.77,0.07499
4210.62,0.07277
4187.47,0.06925
4164.33,0.07022
4141.18,0.07109
4118.04,0.07277
4094.89,0.07297
4071.74,0.07778
4048.6,0.07952
4025.45,0.08001
4002.31,0.08357
3979.16,0.08356
3956.02,0.08478
3932.87,0.08411
3909.72,0.08337
3886.58,0.08544
3863.43,0.08674
3840.29,0.08748
3817.14,0.08744
3793.99,0.08926
3770.85,0.09052
3747.7,0.08929
3724.56,0.09017
3701.41,0.08781
3678.26,0.08622
3655.12,0.08447
3631.97,0.08452
3608.83,0.08226
3585.68,0.08967
3562.54,0.09105
3539.39,0.09210
3516.24,0.09230
3493.1,0.09125
3469.95,0.08292
3446.81,0.08065
3423.66,0.08853
3400.51,0.08972
3377.37,0.08874
3354.22,0.08916
3331.08,0.09042
3307.93,0.09040
3284.78,0.08893
3261.64,0.08879
3238.49,0.08779
3215.35,0.08611
3192.2,0.08563
3169.06,0.08423
3145.91,0.08350
3122.76,0.07884
3099.62,0.07183
3076.47,0.06490
3053.33,0.06053
3030.18,0.05686
3007.03,0.05446
2983.89,0.05146
2960.74,0.04821
2937.6,0.03904
2914.45,0.08726
2891.31,0.06848
2868.16,0.05960
2845.01,0.08358
2821.87,0.06797
2798.72,0.06725
2775.58,0.06831
2752.43,0.06795
2729.28,0.06643
2706.14,0.06810
2682.99,0.06668
2659.85,0.06696
2636.7,0.06871
2613.55,0.07294
2590.41,0.07663
2567.26,0.08070
2544.12,0.08306
2520.97,0.08360
2497.83,0.08596
2474.68,0.08565
2451.53,0.09088
2428.39,0.09167
2405.24,0.09083
2382.1,0.09090
2358.95,0.08883
2335.8,0.08370
2312.66,0.08378
2289.51,0.08505
2266.37,0.08643
2243.22,0.08856
2220.07,0.09262
2196.93,0.09348
2173.78,0.09291
2150.64,0.09210
2127.49,0.09402
2104.35,0.09272
2081.2,0.09037
2058.05,0.08780
2034.91,0.08467
2011.76,0.08637
1988.62,0.09274
1965.47,0.09284
1942.32,0.09208
1919.18,0.08966
1896.03,0.08557
1872.89,0.08519
1849.74,0.08448
1826.6,0.07921
1803.45,0.07292
1780.3,0.06803
1757.16,0.06293
1734.01,0.05980
1710.87,0.05859
1687.72,0.06395
1664.57,0.07248
1641.43,0.07079
1618.28,0.07701
1595.14,0.07868
1571.99,0.07800
1548.84,0.07445
1525.7,0.07232
1502.55,0.07031
1479.41,0.05450
1456.26,0.06344
1433.12,0.06031
1409.97,0.06049
1386.82,0.05375
1363.68,0.05654
1340.53,0.05959
1317.39,0.06025
1294.24,0.06233
1271.09,0.06674
1247.95,0.06325
1224.8,0.05111
1201.66,0.05722
1178.51,0.06023
1155.36,0.05959
1132.22,0.05802
1109.07,0.06045
1085.93,0.06180
1062.78,0.06273
1039.64,0.06357
1016.49,0.06185
993.344,0.06175
970.198,0.06113
947.052,0.06035
923.906,0.06630
900.76,0.06867
877.614,0.06755
854.468,0.06989
831.323,0.07687
808.177,0.07991
785.031,0.08439
761.885,0.07377
738.739,0.05561
715.593,0.06217
692.447,0.08808
669.301,0.07242
646.156,0.06305
623.01,0.06649
599.864,0.06837