File: 01_Data/PEVA/FTIR/IS/PEVA_0.10_IS_Trans_S_240819_R3.dpt
7496.91,0.92131
7473.76,0.93864
7450.62,0.94599
7427.47,0.94510
7404.33,0.92722
7381.18,0.92481
7358.04,0.92954
7334.89,0.92005
7311.75,0.92259
7288.61,0.91766
7265.46,0.92347
7242.32,0.90122
7219.17,0.92660
7196.03,0.91853
7172.88,0.91921
7149.74,0.92276
7126.59,0.91889
7103.45,0.91811
7080.3,0.92834
7057.16,0.92959
7034.02,0.91651
7010.87,0.93627
6987.73,0.92064
6964.58,0.93361
6941.44,0.92279
6918.29,0.92552
6895.15,0.92644
6872,0.91704
6848.86,0.92791
6825.71,0.94395
6802.57,0.93214
6779.43,0.93225
6756.28,0.93375
6733.14,0.92774
6709.99,0.93713
6686.85,0.93291
6663.7,0.92776
6640.56,0.93348
6617.41,0.94107
6594.27,0.92770
6571.12,0.93192
6547.98,0.93130
6524.84,0.93544
6501.69,0.93559
6478.55,0.93352
6455.4,0.94040
6432.26,0.93864
6409.11,0.93426
6385.97,0.93425
6362.82,0.93678
6339.68,0.93073
6316.53,0.93649
6293.39,0.93796
6270.24,0.93506
6247.1,0.93350
6223.96,0.93475
6200.81,0.93494
6177.67,0.93496
6154.52,0.93204
6131.38,0.92812
6108.23,0.93244
6085.09,0.92899
6061.94,0.92890
6038.8,0.92468
6015.65,0.92529
5992.51,0.92472
5969.37,0.92549
5946.22,0.92150
5923.08,0.91754
5899.93,0.91728
5876.79,0.90888
5853.64,0.88914
5830.5,0.86433
5807.35,0.83677
5784.21,0.78778
5761.06,0.82508
5737.92,0.87472
5714.78,0.88606
5691.63,0.86973
5668.49,0.84785
5645.34,0.87500
5622.2,0.88711
5599.05,0.89385
5575.91,0.89514
5552.76,0.89082
5529.62,0.89448
5506.47,0.88625
5483.33,0.89454
5460.19,0.88928
5437.04,0.89020
5413.9,0.88294
5390.75,0.90175
5367.61,0.90645
5344.46,0.88572
5321.32,0.91185
5298.17,0.90943
5275.03,0.91106
5251.88,0.90604
5228.74,0.90150
5205.6,0.89771
5182.45,0.90913
5159.31,0.91052
5136.16,0.91354
5113.02,0.91402
5089.87,0.91514
5066.73,0.91550
5043.58,0.91720
5020.44,0.91653
4997.29,0.91485
4974.15,0.91652
4951.01,0.91537
4927.86,0.91602
4904.72,0.91779
4881.57,0.91392
4858.43,0.91609
4835.28,0.92044
4812.14,0.91821
4788.99,0.92036
4765.85,0.92517
4742.7,0.92058
4719.56,0.92349
4696.42,0.92612
4673.27,0.92000
4650.13,0.92509
4626.98,0.92479
4603.84,0.91972
4580.69,0.92561
4557.55,0.92069
4534.4,0.91592
4511.26,0.91824
4488.11,0.91061
4464.97,0.90229
4441.83,0.89820
4418.68,0.87791
4395.54,0.83382
4372.39,0.78411
4349.25,0.66930
4326.1,0.40136
4302.96,0.72126
4279.81,0.70750
4256.67,0.52954
4233.52,0.67275
4210.38,0.63825
4187.24,0.58409
4164.09,0.59524
4140.95,0.60272
4117.8,0.61661
4094.66,0.62038
4071.51,0.69373
4048.37,0.72897
4025.22,0.74030
4002.08,0.78257
3978.93,0.78215
3955.79,0.79139
3932.65,0.76814
3909.5,0.77494
3886.36,0.76022
3863.21,0.75999
3840.07,0.75333
3816.92,0.76516
3793.78,0.80978
3770.63,0.80881
3747.49,0.77376
3724.34,0.79467
3701.2,0.80479
3678.06,0.78363
3654.91,0.78304
3631.77,0.78170
3608.62,0.73145
3585.48,0.82769
3562.33,0.85827
3539.19,0.88682
3516.04,0.88922
3492.9,0.88326
3469.75,0.88214
3446.61,0.86542
3423.47,0.86549
3400.32,0.87093
3377.18,0.86185
3354.03,0.86155
3330.89,0.87600
3307.74,0.87563
3284.6,0.86876
3261.45,0.87440
3238.31,0.87320
3215.16,0.85625
3192.02,0.84566
3168.87,0.84154
3145.73,0.82239
3122.59,0.78840
3099.44,0.72019
3076.3,0.61897
3053.15,0.54510
3030.01,0.42539
3006.86,0.32229
2983.72,0.14431
2960.57,0.00160
2937.43,0.00114
2914.28,0.00088
2891.14,0.00098
2868,0.00081
2844.85,0.00113
2821.71,0.04097
2798.56,0.17752
2775.42,0.35671
2752.27,0.44169
2729.13,0.45453
2705.98,0.50318
2682.84,0.48422
2659.69,0.46380
2636.55,0.47842
2613.41,0.56675
2590.26,0.63954
2567.12,0.71477
2543.97,0.75277
2520.83,0.76980
2497.68,0.81265
2474.54,0.82513
2451.39,0.84238
2428.25,0.83847
2405.1,0.83682
2381.96,0.81188
2358.82,0.66492
2335.67,0.65961
2312.53,0.73655
2289.38,0.81539
2266.24,0.84037
2243.09,0.84450
2219.95,0.87003
2196.8,0.86906
2173.66,0.86387
2150.51,0.86131
2127.37,0.87744
2104.23,0.88085
2081.08,0.88640
2057.94,0.86122
2034.79,0.83378
2011.65,0.84237
1988.5,0.87341
1965.36,0.87812
1942.21,0.87901
1919.07,0.85223
1895.92,0.83786
1872.78,0.89193
1849.64,0.87838
1826.49,0.87309
1803.35,0.88205
1780.2,0.85690
1757.06,0.84157
1733.91,0.79306
1710.77,0.78827
1687.62,0.83923
1664.48,0.84825
1641.33,0.81118
1618.19,0.82158
1595.05,0.82271
1571.9,0.78912
1548.76,0.78867
1525.61,0.73807
1502.47,0.66490
1479.32,0.28236
1456.18,0.02020
1433.03,0.30970
1409.89,0.70597
1386.74,0.64910
1363.6,0.41005
1340.46,0.58580
1317.31,0.60377
1294.17,0.59233
1271.02,0.66741
1247.88,0.71329
1224.73,0.75901
1201.59,0.76500
1178.44,0.74098
1155.3,0.75723
1132.15,0.77564
1109.01,0.76052
1085.87,0.73080
1062.72,0.75977
1039.58,0.76501
1016.43,0.71993
993.287,0.82296
970.142,0.79813
946.998,0.84040
923.853,0.84703
900.709,0.82399
877.564,0.85248
854.42,0.85440
831.275,0.82162
808.131,0.82958
784.986,0.78245
761.842,0.71299
738.697,0.50753
715.552,0.13324
692.408,0.79195
669.263,0.82710
646.119,0.87255
622.974,0.88747
599.83,0.94146