File: 01_Data/PEVA/FTIR/IS/PEVA_0.26_IS_S_240809_R3.dpt
7497.2,0.11582
7474.05,0.09628
7450.91,0.10178
7427.76,0.10038
7404.62,0.10881
7381.47,0.11100
7358.33,0.11087
7335.18,0.09659
7312.04,0.09725
7288.89,0.09916
7265.75,0.09656
7242.6,0.10124
7219.45,0.09875
7196.31,0.08968
7173.16,0.08993
7150.02,0.10143
7126.87,0.09760
7103.73,0.10537
7080.58,0.10497
7057.44,0.10159
7034.29,0.10125
7011.15,0.09432
6988,0.09231
6964.85,0.10307
6941.71,0.09485
6918.56,0.10567
6895.42,0.10848
6872.27,0.09899
6849.13,0.09956
6825.98,0.10009
6802.84,0.09809
6779.69,0.09834
6756.55,0.09971
6733.4,0.10149
6710.25,0.10148
6687.11,0.09849
6663.96,0.10042
6640.82,0.09389
6617.67,0.09280
6594.53,0.09546
6571.38,0.09953
6548.24,0.09888
6525.09,0.09753
6501.95,0.10109
6478.8,0.09898
6455.65,0.10042
6432.51,0.10014
6409.36,0.10305
6386.22,0.09885
6363.07,0.09658
6339.93,0.10355
6316.78,0.09834
6293.64,0.09755
6270.49,0.09724
6247.34,0.09977
6224.2,0.09600
6201.05,0.09864
6177.91,0.10101
6154.76,0.10067
6131.62,0.09864
6108.47,0.09753
6085.33,0.09859
6062.18,0.10159
6039.04,0.09640
6015.89,0.09604
5992.74,0.09778
5969.6,0.09797
5946.45,0.09576
5923.31,0.09483
5900.16,0.09105
5877.02,0.09226
5853.87,0.08717
5830.73,0.08488
5807.58,0.08851
5784.44,0.08999
5761.29,0.09153
5738.14,0.09227
5715,0.09213
5691.85,0.09306
5668.71,0.09110
5645.56,0.09462
5622.42,0.09284
5599.27,0.09431
5576.13,0.09668
5552.98,0.09530
5529.84,0.09809
5506.69,0.09675
5483.54,0.09750
5460.4,0.09610
5437.25,0.09756
5414.11,0.09900
5390.96,0.09859
5367.82,0.09775
5344.67,0.09778
5321.53,0.09885
5298.38,0.09997
5275.24,0.09771
5252.09,0.10103
5228.94,0.09808
5205.8,0.10024
5182.65,0.09913
5159.51,0.10024
5136.36,0.09893
5113.22,0.10072
5090.07,0.09953
5066.93,0.10068
5043.78,0.09935
5020.64,0.09991
4997.49,0.09991
4974.34,0.09894
4951.2,0.09930
4928.05,0.10124
4904.91,0.10034
4881.76,0.10182
4858.62,0.09991
4835.47,0.10090
4812.33,0.09941
4789.18,0.10089
4766.04,0.10108
4742.89,0.10065
4719.74,0.09949
4696.6,0.09790
4673.45,0.09740
4650.31,0.09866
4627.16,0.09690
4604.02,0.09938
4580.87,0.09933
4557.73,0.09967
4534.58,0.10009
4511.44,0.09835
4488.29,0.09728
4465.14,0.09499
4442,0.09222
4418.85,0.08474
4395.71,0.07965
4372.56,0.07466
4349.42,0.06824
4326.27,0.06764
4303.13,0.07171
4279.98,0.07108
4256.84,0.07249
4233.69,0.07309
4210.54,0.07086
4187.4,0.07368
4164.25,0.07271
4141.11,0.07614
4117.96,0.07805
4094.82,0.07552
4071.67,0.07492
4048.53,0.08017
4025.38,0.08131
4002.24,0.08204
3979.09,0.08507
3955.94,0.08570
3932.8,0.08599
3909.65,0.08596
3886.51,0.08668
3863.36,0.08780
3840.22,0.08751
3817.07,0.08794
3793.93,0.08901
3770.78,0.09034
3747.64,0.09005
3724.49,0.09164
3701.34,0.08936
3678.2,0.08261
3655.05,0.08431
3631.91,0.08477
3608.76,0.08204
3585.62,0.07899
3562.47,0.07618
3539.33,0.07463
3516.18,0.07337
3493.04,0.07046
3469.89,0.06809
3446.74,0.06696
3423.6,0.06318
3400.45,0.06670
3377.31,0.06976
3354.16,0.07119
3331.02,0.07048
3307.87,0.06420
3284.73,0.06752
3261.58,0.07349
3238.44,0.07443
3215.29,0.07272
3192.14,0.07305
3169,0.07325
3145.85,0.07200
3122.71,0.07011
3099.56,0.06706
3076.42,0.06326
3053.27,0.06117
3030.13,0.06038
3006.98,0.05709
2983.84,0.05519
2960.69,0.05765
2937.54,0.05771
2914.4,0.06096
2891.25,0.06172
2868.11,0.06077
2844.96,0.06158
2821.82,0.06116
2798.67,0.06285
2775.53,0.06629
2752.38,0.06721
2729.24,0.06550
2706.09,0.07020
2682.94,0.07065
2659.8,0.07175
2636.65,0.07262
2613.51,0.07164
2590.36,0.07156
2567.22,0.07214
2544.07,0.07298
2520.93,0.07422
2497.78,0.07735
2474.64,0.07869
2451.49,0.07889
2428.34,0.07673
2405.2,0.07423
2382.05,0.07260
2358.91,0.07499
2335.76,0.07863
2312.62,0.08039
2289.47,0.07843
2266.33,0.07803
2243.18,0.07886
2220.04,0.07925
2196.89,0.08127
2173.74,0.08269
2150.6,0.08219
2127.45,0.08202
2104.31,0.08117
2081.16,0.07984
2058.02,0.08040
2034.87,0.08117
2011.73,0.08254
1988.58,0.08034
1965.44,0.07649
1942.29,0.07127
1919.14,0.07742
1896,0.07844
1872.85,0.07850
1849.71,0.07478
1826.56,0.06495
1803.42,0.06495
1780.27,0.05948
1757.13,0.05336
1733.98,0.04827
1710.84,0.06819
1687.69,0.05966
1664.54,0.05960
1641.4,0.05900
1618.25,0.06177
1595.11,0.06257
1571.96,0.05732
1548.82,0.05906
1525.67,0.05802
1502.53,0.05515
1479.38,0.05322
1456.24,0.05463
1433.09,0.05408
1409.94,0.05454
1386.8,0.05362
1363.65,0.05338
1340.51,0.05071
1317.36,0.05128
1294.22,0.04685
1271.07,0.06420
1247.93,0.07094
1224.78,0.06621
1201.64,0.06136
1178.49,0.05899
1155.34,0.05688
1132.2,0.05307
1109.05,0.06294
1085.91,0.06520
1062.76,0.06313
1039.62,0.06115
1016.47,0.06452
993.326,0.05985
970.18,0.06001
947.035,0.06249
923.89,0.06171
900.744,0.06068
877.599,0.05944
854.453,0.06112
831.308,0.06029
808.162,0.06098
785.017,0.05890
761.871,0.05764
738.726,0.04974
715.58,0.05938
692.435,0.05762
669.29,0.05873
646.144,0.05569
622.999,0.06016
599.853,0.06350