File: 01_Data/PEVA/FTIR/IS/PEVA_0.18_IS_T_240809_R14.dpt
7497.33,0.02887
7474.19,0.04365
7451.04,0.03444
7427.9,0.04177
7404.75,0.04446
7381.6,0.02672
7358.46,0.03623
7335.31,0.02830
7312.17,0.03230
7289.02,0.03014
7265.87,0.03205
7242.73,0.03414
7219.58,0.03120
7196.44,0.02801
7173.29,0.03448
7150.15,0.03098
7127,0.02782
7103.85,0.02987
7080.71,0.03259
7057.56,0.03160
7034.42,0.02448
7011.27,0.03011
6988.12,0.03028
6964.98,0.03412
6941.83,0.03374
6918.69,0.03301
6895.54,0.03412
6872.39,0.04517
6849.25,0.02968
6826.1,0.03328
6802.96,0.02891
6779.81,0.02538
6756.67,0.03595
6733.52,0.03270
6710.37,0.03062
6687.23,0.03108
6664.08,0.03188
6640.94,0.03069
6617.79,0.03447
6594.64,0.03710
6571.5,0.02484
6548.35,0.03059
6525.21,0.03300
6502.06,0.03209
6478.92,0.03160
6455.77,0.03477
6432.62,0.02922
6409.48,0.02999
6386.33,0.03393
6363.19,0.02976
6340.04,0.03031
6316.89,0.02846
6293.75,0.03223
6270.6,0.02941
6247.46,0.02769
6224.31,0.02949
6201.16,0.03556
6178.02,0.02768
6154.87,0.03208
6131.73,0.03057
6108.58,0.03139
6085.44,0.03036
6062.29,0.03164
6039.14,0.03015
6016,0.03375
5992.85,0.02785
5969.71,0.03247
5946.56,0.03032
5923.41,0.02955
5900.27,0.02744
5877.12,0.02984
5853.98,0.02990
5830.83,0.02773
5807.68,0.03065
5784.54,0.03085
5761.39,0.03019
5738.25,0.02829
5715.1,0.02938
5691.96,0.02990
5668.81,0.02875
5645.66,0.02987
5622.52,0.03018
5599.37,0.03114
5576.23,0.02974
5553.08,0.03089
5529.93,0.02908
5506.79,0.03142
5483.64,0.03151
5460.5,0.03017
5437.35,0.03220
5414.21,0.03036
5391.06,0.02995
5367.91,0.03077
5344.77,0.03143
5321.62,0.02905
5298.48,0.02999
5275.33,0.02890
5252.18,0.03033
5229.04,0.03097
5205.89,0.02943
5182.75,0.02980
5159.6,0.02857
5136.45,0.03124
5113.31,0.02968
5090.16,0.03064
5067.02,0.02995
5043.87,0.02925
5020.73,0.03021
4997.58,0.02957
4974.43,0.02974
4951.29,0.02940
4928.14,0.03139
4905,0.03180
4881.85,0.03092
4858.7,0.02980
4835.56,0.03001
4812.41,0.03096
4789.27,0.02938
4766.12,0.03085
4742.97,0.03148
4719.83,0.02967
4696.68,0.02931
4673.54,0.03042
4650.39,0.03015
4627.25,0.03025
4604.1,0.03061
4580.95,0.02925
4557.81,0.03066
4534.66,0.02997
4511.52,0.03056
4488.37,0.02990
4465.22,0.03016
4442.08,0.03024
4418.93,0.02980
4395.79,0.02972
4372.64,0.02997
4349.49,0.03008
4326.35,0.02949
4303.2,0.03030
4280.06,0.02955
4256.91,0.03051
4233.77,0.02949
4210.62,0.02889
4187.47,0.03019
4164.33,0.03049
4141.18,0.02985
4118.04,0.02957
4094.89,0.02945
4071.74,0.02947
4048.6,0.02935
4025.45,0.02960
4002.31,0.02897
3979.16,0.02986
3956.02,0.02942
3932.87,0.02938
3909.72,0.02907
3886.58,0.02951
3863.43,0.02968
3840.29,0.02991
3817.14,0.03078
3793.99,0.02914
3770.85,0.02979
3747.7,0.02969
3724.56,0.02973
3701.41,0.02943
3678.26,0.02937
3655.12,0.02868
3631.97,0.02818
3608.83,0.02744
3585.68,0.02686
3562.54,0.02725
3539.39,0.02614
3516.24,0.02668
3493.1,0.02588
3469.95,0.02630
3446.81,0.02625
3423.66,0.02693
3400.51,0.02618
3377.37,0.02598
3354.22,0.02586
3331.08,0.02574
3307.93,0.02617
3284.78,0.02622
3261.64,0.02547
3238.49,0.02679
3215.35,0.02610
3192.2,0.02670
3169.06,0.02649
3145.91,0.02732
3122.76,0.02668
3099.62,0.02681
3076.47,0.02613
3053.33,0.02683
3030.18,0.02603
3007.03,0.02602
2983.89,0.02595
2960.74,0.02531
2937.6,0.02510
2914.45,0.02618
2891.31,0.02616
2868.16,0.02622
2845.01,0.02667
2821.87,0.02688
2798.72,0.02665
2775.58,0.02702
2752.43,0.02662
2729.28,0.02623
2706.14,0.02710
2682.99,0.02702
2659.85,0.02670
2636.7,0.02671
2613.55,0.02693
2590.41,0.02642
2567.26,0.02714
2544.12,0.02679
2520.97,0.02664
2497.83,0.02689
2474.68,0.02680
2451.53,0.02667
2428.39,0.02647
2405.24,0.02658
2382.1,0.02629
2358.95,0.02679
2335.8,0.02652
2312.66,0.02633
2289.51,0.02651
2266.37,0.02580
2243.22,0.02615
2220.07,0.02581
2196.93,0.02591
2173.78,0.02569
2150.64,0.02585
2127.49,0.02613
2104.35,0.02558
2081.2,0.02540
2058.05,0.02523
2034.91,0.02524
2011.76,0.02550
1988.62,0.02539
1965.47,0.02557
1942.32,0.02502
1919.18,0.02506
1896.03,0.02482
1872.89,0.02456
1849.74,0.02454
1826.6,0.02433
1803.45,0.02352
1780.3,0.02286
1757.16,0.02170
1734.01,0.02333
1710.87,0.02408
1687.72,0.02292
1664.57,0.02163
1641.43,0.02209
1618.28,0.02269
1595.14,0.02223
1571.99,0.02185
1548.84,0.02176
1525.7,0.02242
1502.55,0.02198
1479.41,0.02177
1456.26,0.02119
1433.12,0.02124
1409.97,0.02103
1386.82,0.02058
1363.68,0.02096
1340.53,0.02072
1317.39,0.01962
1294.24,0.01997
1271.09,0.02162
1247.95,0.02255
1224.8,0.02187
1201.66,0.02081
1178.51,0.02116
1155.36,0.02001
1132.22,0.02096
1109.07,0.02245
1085.93,0.02217
1062.78,0.02388
1039.64,0.02283
1016.49,0.02248
993.344,0.02425
970.198,0.02398
947.052,0.02335
923.906,0.02223
900.76,0.02191
877.614,0.02229
854.468,0.02182
831.323,0.02145
808.177,0.02198
785.031,0.02065
761.885,0.01995
738.739,0.02014
715.593,0.01903
692.447,0.01931
669.301,0.02035
646.156,0.01653
623.01,0.01904
599.864,0.02012