File: 01_Data/PEVA/FTIR/IS/PEVA_0.26_IS_T_240809_R3.dpt
7497.2,0.03803
7474.05,0.03024
7450.91,0.03252
7427.76,0.04492
7404.62,0.03699
7381.47,0.03435
7358.33,0.03422
7335.18,0.03785
7312.04,0.02941
7288.89,0.02575
7265.75,0.03835
7242.6,0.03177
7219.45,0.03827
7196.31,0.03226
7173.16,0.03520
7150.02,0.02315
7126.87,0.02920
7103.73,0.03057
7080.58,0.03840
7057.44,0.03888
7034.29,0.04182
7011.15,0.03588
6988,0.03096
6964.85,0.03466
6941.71,0.03395
6918.56,0.03423
6895.42,0.03104
6872.27,0.03520
6849.13,0.03100
6825.98,0.03551
6802.84,0.03167
6779.69,0.04336
6756.55,0.03153
6733.4,0.03479
6710.25,0.03679
6687.11,0.03132
6663.96,0.03371
6640.82,0.03319
6617.67,0.03176
6594.53,0.02588
6571.38,0.03096
6548.24,0.03209
6525.09,0.03016
6501.95,0.02675
6478.8,0.02856
6455.65,0.03085
6432.51,0.03036
6409.36,0.03481
6386.22,0.03578
6363.07,0.03007
6339.93,0.03044
6316.78,0.03508
6293.64,0.03402
6270.49,0.03142
6247.34,0.03007
6224.2,0.03307
6201.05,0.02820
6177.91,0.03187
6154.76,0.03010
6131.62,0.02938
6108.47,0.02925
6085.33,0.03078
6062.18,0.03110
6039.04,0.03214
6015.89,0.03019
5992.74,0.03120
5969.6,0.02886
5946.45,0.02968
5923.31,0.03563
5900.16,0.03042
5877.02,0.03163
5853.87,0.02986
5830.73,0.03243
5807.58,0.03167
5784.44,0.03043
5761.29,0.03355
5738.14,0.03208
5715,0.03111
5691.85,0.03077
5668.71,0.03225
5645.56,0.03008
5622.42,0.02964
5599.27,0.03406
5576.13,0.03122
5552.98,0.03049
5529.84,0.03005
5506.69,0.03037
5483.54,0.03168
5460.4,0.03320
5437.25,0.03254
5414.11,0.03176
5390.96,0.03283
5367.82,0.03114
5344.67,0.03137
5321.53,0.03077
5298.38,0.03126
5275.24,0.03212
5252.09,0.03243
5228.94,0.03052
5205.8,0.03014
5182.65,0.03047
5159.51,0.03123
5136.36,0.02983
5113.22,0.03171
5090.07,0.03085
5066.93,0.03150
5043.78,0.03103
5020.64,0.03123
4997.49,0.02898
4974.34,0.03066
4951.2,0.03160
4928.05,0.03054
4904.91,0.03106
4881.76,0.03128
4858.62,0.03009
4835.47,0.03055
4812.33,0.03146
4789.18,0.02991
4766.04,0.03124
4742.89,0.03051
4719.74,0.03134
4696.6,0.03197
4673.45,0.03146
4650.31,0.03091
4627.16,0.02989
4604.02,0.03174
4580.87,0.03029
4557.73,0.03130
4534.58,0.03056
4511.44,0.03125
4488.29,0.03120
4465.14,0.03037
4442,0.03050
4418.85,0.03076
4395.71,0.03019
4372.56,0.03106
4349.42,0.02953
4326.27,0.03007
4303.13,0.03072
4279.98,0.02986
4256.84,0.03034
4233.69,0.02991
4210.54,0.03051
4187.4,0.03043
4164.25,0.03083
4141.11,0.03083
4117.96,0.03044
4094.82,0.03057
4071.67,0.03038
4048.53,0.03053
4025.38,0.03053
4002.24,0.03031
3979.09,0.02990
3955.94,0.02995
3932.8,0.03045
3909.65,0.03091
3886.51,0.03145
3863.36,0.02956
3840.22,0.03025
3817.07,0.03045
3793.93,0.03033
3770.78,0.03082
3747.64,0.02920
3724.49,0.03052
3701.34,0.03003
3678.2,0.02960
3655.05,0.02966
3631.91,0.02874
3608.76,0.02841
3585.62,0.02785
3562.47,0.02817
3539.33,0.02720
3516.18,0.02741
3493.04,0.02710
3469.89,0.02734
3446.74,0.02641
3423.6,0.02613
3400.45,0.02665
3377.31,0.02641
3354.16,0.02595
3331.02,0.02649
3307.87,0.02590
3284.73,0.02660
3261.58,0.02691
3238.44,0.02685
3215.29,0.02662
3192.14,0.02612
3169,0.02768
3145.85,0.02760
3122.71,0.02709
3099.56,0.02678
3076.42,0.02722
3053.27,0.02747
3030.13,0.02730
3006.98,0.02709
2983.84,0.02639
2960.69,0.02651
2937.54,0.02594
2914.4,0.02640
2891.25,0.02669
2868.11,0.02675
2844.96,0.02720
2821.82,0.02749
2798.67,0.02747
2775.53,0.02730
2752.38,0.02759
2729.24,0.02730
2706.09,0.02733
2682.94,0.02819
2659.8,0.02743
2636.65,0.02736
2613.51,0.02727
2590.36,0.02767
2567.22,0.02732
2544.07,0.02731
2520.93,0.02699
2497.78,0.02712
2474.64,0.02705
2451.49,0.02717
2428.34,0.02692
2405.2,0.02694
2382.05,0.02707
2358.91,0.02810
2335.76,0.02687
2312.62,0.02696
2289.47,0.02691
2266.33,0.02666
2243.18,0.02681
2220.04,0.02666
2196.89,0.02636
2173.74,0.02655
2150.6,0.02614
2127.45,0.02625
2104.31,0.02640
2081.16,0.02664
2058.02,0.02641
2034.87,0.02615
2011.73,0.02595
1988.58,0.02613
1965.44,0.02600
1942.29,0.02612
1919.14,0.02580
1896,0.02540
1872.85,0.02576
1849.71,0.02554
1826.56,0.02498
1803.42,0.02442
1780.27,0.02368
1757.13,0.02220
1733.98,0.02388
1710.84,0.02407
1687.69,0.02348
1664.54,0.02220
1641.4,0.02230
1618.25,0.02238
1595.11,0.02282
1571.96,0.02178
1548.82,0.02233
1525.67,0.02239
1502.53,0.02224
1479.38,0.02216
1456.24,0.02197
1433.09,0.02166
1409.94,0.02117
1386.8,0.02107
1363.65,0.02109
1340.51,0.02053
1317.36,0.02008
1294.22,0.02063
1271.07,0.02166
1247.93,0.02300
1224.78,0.02224
1201.64,0.02169
1178.49,0.02042
1155.34,0.02040
1132.2,0.02104
1109.05,0.02252
1085.91,0.02207
1062.76,0.02470
1039.62,0.02399
1016.47,0.02351
993.326,0.02403
970.18,0.02370
947.035,0.02343
923.89,0.02240
900.744,0.02261
877.599,0.02223
854.453,0.02263
831.308,0.02205
808.162,0.02083
785.017,0.02161
761.871,0.02083
738.726,0.01998
715.58,0.01942
692.435,0.01925
669.29,0.02020
646.144,0.01758
622.999,0.01891
599.853,0.02009