File: 01_Data/PEVA/FTIR/IS/PEVA_0.18_IS_T_240809_R11.dpt
7497.33,0.05069
7474.19,0.02922
7451.04,0.03535
7427.9,0.02607
7404.75,0.02655
7381.6,0.03123
7358.46,0.03490
7335.31,0.04091
7312.17,0.03288
7289.02,0.03044
7265.87,0.03764
7242.73,0.03187
7219.58,0.03154
7196.44,0.03883
7173.29,0.02756
7150.15,0.04301
7127,0.03880
7103.85,0.03193
7080.71,0.03615
7057.56,0.02643
7034.42,0.03050
7011.27,0.03671
6988.12,0.03065
6964.98,0.03337
6941.83,0.03705
6918.69,0.02824
6895.54,0.03695
6872.39,0.03590
6849.25,0.03548
6826.1,0.02797
6802.96,0.02999
6779.81,0.02799
6756.67,0.02996
6733.52,0.03764
6710.37,0.02620
6687.23,0.03048
6664.08,0.03604
6640.94,0.03114
6617.79,0.03604
6594.64,0.02934
6571.5,0.02728
6548.35,0.03243
6525.21,0.03253
6502.06,0.03183
6478.92,0.02713
6455.77,0.03270
6432.62,0.03599
6409.48,0.03505
6386.33,0.03727
6363.19,0.03031
6340.04,0.03206
6316.89,0.02917
6293.75,0.03035
6270.6,0.03106
6247.46,0.03337
6224.31,0.02960
6201.16,0.03431
6178.02,0.03078
6154.87,0.02983
6131.73,0.02931
6108.58,0.02951
6085.44,0.02881
6062.29,0.02835
6039.14,0.02828
6016,0.03046
5992.85,0.02775
5969.71,0.03045
5946.56,0.02892
5923.41,0.03242
5900.27,0.03065
5877.12,0.03041
5853.98,0.03009
5830.83,0.03275
5807.68,0.03328
5784.54,0.03283
5761.39,0.03033
5738.25,0.03062
5715.1,0.03122
5691.96,0.03193
5668.81,0.03301
5645.66,0.03062
5622.52,0.02872
5599.37,0.02866
5576.23,0.02954
5553.08,0.02954
5529.93,0.02977
5506.79,0.03025
5483.64,0.02928
5460.5,0.02934
5437.35,0.02948
5414.21,0.02978
5391.06,0.03059
5367.91,0.02911
5344.77,0.03063
5321.62,0.03040
5298.48,0.02778
5275.33,0.03062
5252.18,0.02962
5229.04,0.03166
5205.89,0.03033
5182.75,0.02930
5159.6,0.02984
5136.45,0.03078
5113.31,0.02942
5090.16,0.02996
5067.02,0.02827
5043.87,0.03135
5020.73,0.02965
4997.58,0.02874
4974.43,0.03009
4951.29,0.03018
4928.14,0.02999
4905,0.03138
4881.85,0.03237
4858.7,0.03122
4835.56,0.02925
4812.41,0.02955
4789.27,0.02963
4766.12,0.03078
4742.97,0.03059
4719.83,0.03012
4696.68,0.03046
4673.54,0.03161
4650.39,0.02957
4627.25,0.03005
4604.1,0.03118
4580.95,0.03087
4557.81,0.02969
4534.66,0.03029
4511.52,0.03104
4488.37,0.03078
4465.22,0.02980
4442.08,0.03032
4418.93,0.03045
4395.79,0.03062
4372.64,0.03168
4349.49,0.03046
4326.35,0.03044
4303.2,0.02973
4280.06,0.03049
4256.91,0.03008
4233.77,0.02998
4210.62,0.02989
4187.47,0.03008
4164.33,0.02975
4141.18,0.02972
4118.04,0.03013
4094.89,0.03060
4071.74,0.03020
4048.6,0.03035
4025.45,0.02990
4002.31,0.03032
3979.16,0.02977
3956.02,0.03033
3932.87,0.02904
3909.72,0.03088
3886.58,0.02985
3863.43,0.02988
3840.29,0.03060
3817.14,0.02973
3793.99,0.03022
3770.85,0.02989
3747.7,0.03038
3724.56,0.02969
3701.41,0.02898
3678.26,0.03024
3655.12,0.02960
3631.97,0.02899
3608.83,0.02827
3585.68,0.02648
3562.54,0.02764
3539.39,0.02697
3516.24,0.02691
3493.1,0.02697
3469.95,0.02684
3446.81,0.02681
3423.66,0.02637
3400.51,0.02708
3377.37,0.02663
3354.22,0.02642
3331.08,0.02657
3307.93,0.02655
3284.78,0.02612
3261.64,0.02566
3238.49,0.02695
3215.35,0.02661
3192.2,0.02697
3169.06,0.02710
3145.91,0.02669
3122.76,0.02613
3099.62,0.02679
3076.47,0.02780
3053.33,0.02680
3030.18,0.02689
3007.03,0.02658
2983.89,0.02627
2960.74,0.02483
2937.6,0.02620
2914.45,0.02604
2891.31,0.02629
2868.16,0.02623
2845.01,0.02693
2821.87,0.02723
2798.72,0.02763
2775.58,0.02720
2752.43,0.02739
2729.28,0.02747
2706.14,0.02723
2682.99,0.02724
2659.85,0.02736
2636.7,0.02725
2613.55,0.02712
2590.41,0.02725
2567.26,0.02721
2544.12,0.02707
2520.97,0.02726
2497.83,0.02724
2474.68,0.02701
2451.53,0.02678
2428.39,0.02709
2405.24,0.02683
2382.1,0.02716
2358.95,0.02747
2335.8,0.02774
2312.66,0.02716
2289.51,0.02685
2266.37,0.02644
2243.22,0.02644
2220.07,0.02646
2196.93,0.02629
2173.78,0.02636
2150.64,0.02632
2127.49,0.02632
2104.35,0.02611
2081.2,0.02591
2058.05,0.02590
2034.91,0.02598
2011.76,0.02597
1988.62,0.02587
1965.47,0.02587
1942.32,0.02601
1919.18,0.02593
1896.03,0.02571
1872.89,0.02534
1849.74,0.02494
1826.6,0.02492
1803.45,0.02444
1780.3,0.02344
1757.16,0.02158
1734.01,0.02377
1710.87,0.02452
1687.72,0.02326
1664.57,0.02224
1641.43,0.02224
1618.28,0.02259
1595.14,0.02260
1571.99,0.02239
1548.84,0.02223
1525.7,0.02230
1502.55,0.02212
1479.41,0.02181
1456.26,0.02110
1433.12,0.02222
1409.97,0.02091
1386.82,0.02062
1363.68,0.02106
1340.53,0.02063
1317.39,0.01963
1294.24,0.02067
1271.09,0.02200
1247.95,0.02263
1224.8,0.02185
1201.66,0.02092
1178.51,0.02086
1155.36,0.02007
1132.22,0.02109
1109.07,0.02233
1085.93,0.02185
1062.78,0.02378
1039.64,0.02362
1016.49,0.02347
993.344,0.02466
970.198,0.02384
947.052,0.02286
923.906,0.02242
900.76,0.02292
877.614,0.02204
854.468,0.02174
831.323,0.02217
808.177,0.02116
785.031,0.02157
761.885,0.02016
738.739,0.02050
715.593,0.01935
692.447,0.02080
669.301,0.01977
646.156,0.01893
623.01,0.01684
599.864,0.01979