File: 01_Data/PEVA/FTIR/IS/PEVA_0.10_IS_T_240808_R11.dpt
7496.93,0.05053
7473.78,0.02695
7450.64,0.04274
7427.49,0.03373
7404.35,0.03885
7381.2,0.03285
7358.06,0.03285
7334.91,0.03476
7311.77,0.03793
7288.62,0.02445
7265.48,0.03790
7242.34,0.03674
7219.19,0.04736
7196.05,0.04231
7172.9,0.03156
7149.76,0.02141
7126.61,0.03690
7103.47,0.02428
7080.32,0.02730
7057.18,0.03033
7034.03,0.02919
7010.89,0.03248
6987.74,0.03098
6964.6,0.02874
6941.46,0.03386
6918.31,0.03319
6895.17,0.03253
6872.02,0.03400
6848.88,0.02844
6825.73,0.03404
6802.59,0.03374
6779.44,0.02801
6756.3,0.03280
6733.15,0.03124
6710.01,0.02888
6686.86,0.03267
6663.72,0.03637
6640.58,0.02944
6617.43,0.02950
6594.29,0.02881
6571.14,0.02535
6548,0.03567
6524.85,0.03736
6501.71,0.02623
6478.56,0.03762
6455.42,0.02901
6432.27,0.02518
6409.13,0.02857
6385.98,0.02991
6362.84,0.03001
6339.7,0.02669
6316.55,0.03346
6293.41,0.03445
6270.26,0.03433
6247.12,0.03062
6223.97,0.03441
6200.83,0.02767
6177.68,0.03043
6154.54,0.03342
6131.39,0.02518
6108.25,0.02833
6085.1,0.02914
6061.96,0.02818
6038.82,0.02995
6015.67,0.03064
5992.53,0.02981
5969.38,0.03234
5946.24,0.02656
5923.09,0.03173
5899.95,0.02694
5876.8,0.02962
5853.66,0.02772
5830.51,0.02901
5807.37,0.03112
5784.22,0.02753
5761.08,0.02965
5737.94,0.03134
5714.79,0.02831
5691.65,0.03205
5668.5,0.03005
5645.36,0.03137
5622.21,0.03069
5599.07,0.02913
5575.92,0.03505
5552.78,0.03129
5529.63,0.03076
5506.49,0.02804
5483.34,0.02975
5460.2,0.03136
5437.06,0.02934
5413.91,0.03137
5390.77,0.03021
5367.62,0.02807
5344.48,0.02988
5321.33,0.03048
5298.19,0.02941
5275.04,0.02966
5251.9,0.03118
5228.75,0.03219
5205.61,0.02953
5182.46,0.02953
5159.32,0.03010
5136.18,0.02842
5113.03,0.03058
5089.89,0.02877
5066.74,0.02967
5043.6,0.03028
5020.45,0.03031
4997.31,0.03041
4974.16,0.02958
4951.02,0.03009
4927.87,0.02995
4904.73,0.03055
4881.58,0.02989
4858.44,0.02971
4835.3,0.02969
4812.15,0.02900
4789.01,0.02967
4765.86,0.02988
4742.72,0.03022
4719.57,0.03024
4696.43,0.02950
4673.28,0.03083
4650.14,0.02967
4626.99,0.02944
4603.85,0.03030
4580.7,0.02995
4557.56,0.02950
4534.42,0.02914
4511.27,0.02904
4488.13,0.02947
4464.98,0.02965
4441.84,0.02990
4418.69,0.02967
4395.55,0.02968
4372.4,0.02936
4349.26,0.02878
4326.11,0.02968
4302.97,0.02942
4279.82,0.02975
4256.68,0.02937
4233.54,0.02907
4210.39,0.02974
4187.25,0.03009
4164.1,0.02999
4140.96,0.02983
4117.81,0.02931
4094.67,0.02939
4071.52,0.03012
4048.38,0.02984
4025.23,0.03033
4002.09,0.02993
3978.94,0.02949
3955.8,0.02967
3932.66,0.02882
3909.51,0.03019
3886.37,0.02922
3863.22,0.02953
3840.08,0.02923
3816.93,0.02884
3793.79,0.02927
3770.64,0.02955
3747.5,0.02900
3724.35,0.02909
3701.21,0.02890
3678.06,0.02918
3654.92,0.02795
3631.78,0.02757
3608.63,0.02824
3585.49,0.02749
3562.34,0.02640
3539.2,0.02602
3516.05,0.02732
3492.91,0.02656
3469.76,0.02660
3446.62,0.02599
3423.47,0.02614
3400.33,0.02634
3377.18,0.02560
3354.04,0.02622
3330.9,0.02618
3307.75,0.02595
3284.61,0.02578
3261.46,0.02603
3238.32,0.02674
3215.17,0.02655
3192.03,0.02627
3168.88,0.02652
3145.74,0.02596
3122.59,0.02684
3099.45,0.02695
3076.3,0.02669
3053.16,0.02689
3030.02,0.02670
3006.87,0.02614
2983.73,0.02590
2960.58,0.02505
2937.44,0.02537
2914.29,0.02613
2891.15,0.02605
2868,0.02596
2844.86,0.02670
2821.71,0.02689
2798.57,0.02688
2775.42,0.02723
2752.28,0.02661
2729.14,0.02743
2705.99,0.02717
2682.85,0.02715
2659.7,0.02647
2636.56,0.02682
2613.41,0.02682
2590.27,0.02627
2567.12,0.02718
2543.98,0.02652
2520.83,0.02659
2497.69,0.02691
2474.55,0.02685
2451.4,0.02645
2428.26,0.02643
2405.11,0.02734
2381.97,0.02657
2358.82,0.02712
2335.68,0.02682
2312.53,0.02657
2289.39,0.02634
2266.24,0.02647
2243.1,0.02620
2219.95,0.02608
2196.81,0.02622
2173.67,0.02609
2150.52,0.02606
2127.38,0.02559
2104.23,0.02601
2081.09,0.02574
2057.94,0.02562
2034.8,0.02580
2011.65,0.02548
1988.51,0.02544
1965.36,0.02553
1942.22,0.02560
1919.07,0.02535
1895.93,0.02507
1872.79,0.02487
1849.64,0.02457
1826.5,0.02429
1803.35,0.02374
1780.21,0.02303
1757.06,0.02136
1733.92,0.02341
1710.77,0.02364
1687.63,0.02263
1664.48,0.02143
1641.34,0.02156
1618.19,0.02233
1595.05,0.02168
1571.91,0.02158
1548.76,0.02149
1525.62,0.02166
1502.47,0.02174
1479.33,0.02179
1456.18,0.02082
1433.04,0.02135
1409.89,0.02073
1386.75,0.02060
1363.6,0.02052
1340.46,0.02046
1317.31,0.01914
1294.17,0.02021
1271.03,0.02110
1247.88,0.02216
1224.74,0.02157
1201.59,0.02088
1178.45,0.02022
1155.3,0.02022
1132.16,0.02040
1109.01,0.02129
1085.87,0.02134
1062.72,0.02464
1039.58,0.02317
1016.43,0.02297
993.29,0.02376
970.145,0.02257
947,0.02315
923.856,0.02238
900.711,0.02178
877.567,0.02184
854.422,0.02173
831.277,0.02065
808.133,0.02072
784.988,0.02166
761.844,0.02021
738.699,0.01915
715.554,0.01908
692.41,0.01894
669.265,0.01815
646.12,0.01795
622.976,0.01704
599.831,0.01786