File: 01_Data/PEVA/FTIR/IS/PEVA_0.26_IS_T_240809_R8.dpt
7497.2,0.04380
7474.05,0.02129
7450.91,0.02695
7427.76,0.04251
7404.62,0.04548
7381.47,0.02925
7358.33,0.03792
7335.18,0.04145
7312.04,0.03038
7288.89,0.03459
7265.75,0.04408
7242.6,0.02283
7219.45,0.03260
7196.31,0.03000
7173.16,0.04573
7150.02,0.03621
7126.87,0.02951
7103.73,0.03042
7080.58,0.03574
7057.44,0.03601
7034.29,0.02708
7011.15,0.03612
6988,0.02795
6964.85,0.04357
6941.71,0.03375
6918.56,0.03301
6895.42,0.03748
6872.27,0.02583
6849.13,0.03102
6825.98,0.03357
6802.84,0.02473
6779.69,0.03604
6756.55,0.03434
6733.4,0.03495
6710.25,0.03728
6687.11,0.03104
6663.96,0.03354
6640.82,0.03799
6617.67,0.03196
6594.53,0.03490
6571.38,0.03251
6548.24,0.03011
6525.09,0.03526
6501.95,0.03497
6478.8,0.02923
6455.65,0.03246
6432.51,0.03294
6409.36,0.03882
6386.22,0.02954
6363.07,0.03125
6339.93,0.03041
6316.78,0.03451
6293.64,0.02982
6270.49,0.02954
6247.34,0.03031
6224.2,0.02938
6201.05,0.02844
6177.91,0.03384
6154.76,0.02910
6131.62,0.02993
6108.47,0.03432
6085.33,0.02847
6062.18,0.02961
6039.04,0.02827
6015.89,0.03076
5992.74,0.03249
5969.6,0.03089
5946.45,0.03101
5923.31,0.03026
5900.16,0.03217
5877.02,0.03195
5853.87,0.03139
5830.73,0.02998
5807.58,0.02884
5784.44,0.03028
5761.29,0.03288
5738.14,0.03235
5715,0.03006
5691.85,0.02974
5668.71,0.03267
5645.56,0.02976
5622.42,0.02880
5599.27,0.03119
5576.13,0.02985
5552.98,0.03161
5529.84,0.03010
5506.69,0.02888
5483.54,0.03036
5460.4,0.03010
5437.25,0.03075
5414.11,0.03003
5390.96,0.02987
5367.82,0.02997
5344.67,0.03288
5321.53,0.02990
5298.38,0.03067
5275.24,0.02980
5252.09,0.03071
5228.94,0.03077
5205.8,0.03056
5182.65,0.02908
5159.51,0.02967
5136.36,0.03003
5113.22,0.03082
5090.07,0.02946
5066.93,0.03082
5043.78,0.03146
5020.64,0.03130
4997.49,0.02948
4974.34,0.03112
4951.2,0.02981
4928.05,0.02973
4904.91,0.03008
4881.76,0.03069
4858.62,0.03193
4835.47,0.03039
4812.33,0.03051
4789.18,0.02983
4766.04,0.03059
4742.89,0.02945
4719.74,0.03073
4696.6,0.03047
4673.45,0.03070
4650.31,0.03051
4627.16,0.03120
4604.02,0.03162
4580.87,0.03088
4557.73,0.02992
4534.58,0.03124
4511.44,0.03022
4488.29,0.03062
4465.14,0.03022
4442,0.02989
4418.85,0.03007
4395.71,0.03002
4372.56,0.03013
4349.42,0.02938
4326.27,0.03023
4303.13,0.03066
4279.98,0.02985
4256.84,0.03016
4233.69,0.03056
4210.54,0.03016
4187.4,0.03060
4164.25,0.03023
4141.11,0.03026
4117.96,0.03020
4094.82,0.03036
4071.67,0.03043
4048.53,0.03045
4025.38,0.02952
4002.24,0.03033
3979.09,0.03000
3955.94,0.02966
3932.8,0.02987
3909.65,0.03043
3886.51,0.03033
3863.36,0.02966
3840.22,0.03022
3817.07,0.02972
3793.93,0.02990
3770.78,0.02976
3747.64,0.02981
3724.49,0.02913
3701.34,0.02898
3678.2,0.02921
3655.05,0.02868
3631.91,0.02834
3608.76,0.02802
3585.62,0.02811
3562.47,0.02709
3539.33,0.02711
3516.18,0.02718
3493.04,0.02704
3469.89,0.02638
3446.74,0.02620
3423.6,0.02594
3400.45,0.02666
3377.31,0.02612
3354.16,0.02574
3331.02,0.02645
3307.87,0.02619
3284.73,0.02555
3261.58,0.02637
3238.44,0.02642
3215.29,0.02641
3192.14,0.02763
3169,0.02646
3145.85,0.02718
3122.71,0.02716
3099.56,0.02703
3076.42,0.02639
3053.27,0.02695
3030.13,0.02707
3006.98,0.02663
2983.84,0.02665
2960.69,0.02581
2937.54,0.02490
2914.4,0.02672
2891.25,0.02662
2868.11,0.02636
2844.96,0.02693
2821.82,0.02762
2798.67,0.02709
2775.53,0.02755
2752.38,0.02701
2729.24,0.02724
2706.09,0.02689
2682.94,0.02715
2659.8,0.02725
2636.65,0.02732
2613.51,0.02767
2590.36,0.02700
2567.22,0.02701
2544.07,0.02702
2520.93,0.02695
2497.78,0.02663
2474.64,0.02743
2451.49,0.02704
2428.34,0.02704
2405.2,0.02699
2382.05,0.02694
2358.91,0.02748
2335.76,0.02796
2312.62,0.02647
2289.47,0.02637
2266.33,0.02701
2243.18,0.02640
2220.04,0.02634
2196.89,0.02634
2173.74,0.02622
2150.6,0.02593
2127.45,0.02637
2104.31,0.02600
2081.16,0.02606
2058.02,0.02609
2034.87,0.02597
2011.73,0.02555
1988.58,0.02583
1965.44,0.02569
1942.29,0.02540
1919.14,0.02507
1896,0.02492
1872.85,0.02487
1849.71,0.02505
1826.56,0.02436
1803.42,0.02419
1780.27,0.02334
1757.13,0.02144
1733.98,0.02300
1710.84,0.02402
1687.69,0.02224
1664.54,0.02209
1641.4,0.02226
1618.25,0.02211
1595.11,0.02244
1571.96,0.02173
1548.82,0.02174
1525.67,0.02167
1502.53,0.02192
1479.38,0.02183
1456.24,0.02147
1433.09,0.02123
1409.94,0.02105
1386.8,0.02109
1363.65,0.02091
1340.51,0.02068
1317.36,0.01936
1294.22,0.02061
1271.07,0.02210
1247.93,0.02256
1224.78,0.02164
1201.64,0.02122
1178.49,0.02024
1155.34,0.01968
1132.2,0.02045
1109.05,0.02261
1085.91,0.02177
1062.76,0.02421
1039.62,0.02304
1016.47,0.02313
993.326,0.02429
970.18,0.02364
947.035,0.02251
923.89,0.02286
900.744,0.02188
877.599,0.02267
854.453,0.02171
831.308,0.02120
808.162,0.02094
785.017,0.02110
761.871,0.02015
738.726,0.01987
715.58,0.01924
692.435,0.01934
669.29,0.01900
646.144,0.01707
622.999,0.01778
599.853,0.01913