File: 01_Data/PEVA/FTIR/IS/PEVA_0.26_IS_S_240809_R2.dpt
7497.2,0.11013
7474.05,0.10419
7450.91,0.10388
7427.76,0.09009
7404.62,0.09498
7381.47,0.10539
7358.33,0.10079
7335.18,0.10336
7312.04,0.09825
7288.89,0.10967
7265.75,0.11526
7242.6,0.10860
7219.45,0.10195
7196.31,0.10653
7173.16,0.10306
7150.02,0.09484
7126.87,0.10162
7103.73,0.10282
7080.58,0.09864
7057.44,0.10531
7034.29,0.09946
7011.15,0.10574
6988,0.10304
6964.85,0.09808
6941.71,0.09600
6918.56,0.10307
6895.42,0.10024
6872.27,0.10076
6849.13,0.10031
6825.98,0.10576
6802.84,0.10042
6779.69,0.09690
6756.55,0.09924
6733.4,0.09873
6710.25,0.10110
6687.11,0.10122
6663.96,0.10724
6640.82,0.10661
6617.67,0.10322
6594.53,0.09776
6571.38,0.10114
6548.24,0.10828
6525.09,0.10586
6501.95,0.10097
6478.8,0.10397
6455.65,0.09814
6432.51,0.10039
6409.36,0.10156
6386.22,0.10098
6363.07,0.09910
6339.93,0.10331
6316.78,0.09698
6293.64,0.09733
6270.49,0.10202
6247.34,0.10016
6224.2,0.10299
6201.05,0.10108
6177.91,0.10272
6154.76,0.10280
6131.62,0.09978
6108.47,0.10263
6085.33,0.10470
6062.18,0.10022
6039.04,0.09891
6015.89,0.09848
5992.74,0.09913
5969.6,0.09857
5946.45,0.09939
5923.31,0.09881
5900.16,0.09486
5877.02,0.09214
5853.87,0.08763
5830.73,0.08602
5807.58,0.09052
5784.44,0.09034
5761.29,0.09328
5738.14,0.09296
5715,0.09134
5691.85,0.09378
5668.71,0.09477
5645.56,0.09554
5622.42,0.09860
5599.27,0.09724
5576.13,0.09667
5552.98,0.09933
5529.84,0.09810
5506.69,0.09829
5483.54,0.09798
5460.4,0.09947
5437.25,0.09974
5414.11,0.09700
5390.96,0.10074
5367.82,0.09975
5344.67,0.09765
5321.53,0.09995
5298.38,0.10216
5275.24,0.10039
5252.09,0.09998
5228.94,0.10080
5205.8,0.09940
5182.65,0.10104
5159.51,0.10128
5136.36,0.10088
5113.22,0.10234
5090.07,0.10062
5066.93,0.10065
5043.78,0.10222
5020.64,0.10217
4997.49,0.10173
4974.34,0.10328
4951.2,0.10246
4928.05,0.10230
4904.91,0.10133
4881.76,0.10162
4858.62,0.10141
4835.47,0.10248
4812.33,0.10210
4789.18,0.10056
4766.04,0.10093
4742.89,0.10212
4719.74,0.10098
4696.6,0.09982
4673.45,0.10020
4650.31,0.10174
4627.16,0.09876
4604.02,0.10176
4580.87,0.10077
4557.73,0.10164
4534.58,0.10096
4511.44,0.10015
4488.29,0.09919
4465.14,0.09750
4442,0.09387
4418.85,0.08589
4395.71,0.08104
4372.56,0.07553
4349.42,0.06971
4326.27,0.06846
4303.13,0.07286
4279.98,0.07287
4256.84,0.07426
4233.69,0.07397
4210.54,0.07242
4187.4,0.07574
4164.25,0.07357
4141.11,0.07785
4117.96,0.07928
4094.82,0.07711
4071.67,0.07670
4048.53,0.08209
4025.38,0.08263
4002.24,0.08336
3979.09,0.08568
3955.94,0.08774
3932.8,0.08714
3909.65,0.08811
3886.51,0.08871
3863.36,0.08786
3840.22,0.08934
3817.07,0.09040
3793.93,0.09108
3770.78,0.09176
3747.64,0.09143
3724.49,0.09324
3701.34,0.09116
3678.2,0.08504
3655.05,0.08454
3631.91,0.08569
3608.76,0.08363
3585.62,0.08048
3562.47,0.07726
3539.33,0.07607
3516.18,0.07443
3493.04,0.07218
3469.89,0.06945
3446.74,0.06674
3423.6,0.06353
3400.45,0.06670
3377.31,0.07015
3354.16,0.07271
3331.02,0.07171
3307.87,0.06534
3284.73,0.06945
3261.58,0.07474
3238.44,0.07682
3215.29,0.07536
3192.14,0.07403
3169,0.07464
3145.85,0.07341
3122.71,0.07146
3099.56,0.06834
3076.42,0.06502
3053.27,0.06247
3030.13,0.06091
3006.98,0.05811
2983.84,0.05580
2960.69,0.05824
2937.54,0.05905
2914.4,0.06211
2891.25,0.06180
2868.11,0.06204
2844.96,0.06347
2821.82,0.06244
2798.67,0.06391
2775.53,0.06726
2752.38,0.06814
2729.24,0.06700
2706.09,0.07095
2682.94,0.07207
2659.8,0.07287
2636.65,0.07434
2613.51,0.07269
2590.36,0.07338
2567.22,0.07330
2544.07,0.07456
2520.93,0.07606
2497.78,0.07878
2474.64,0.07944
2451.49,0.08028
2428.34,0.07816
2405.2,0.07574
2382.05,0.07373
2358.91,0.07589
2335.76,0.07979
2312.62,0.08196
2289.47,0.08045
2266.33,0.08012
2243.18,0.07993
2220.04,0.08018
2196.89,0.08269
2173.74,0.08463
2150.6,0.08386
2127.45,0.08358
2104.31,0.08270
2081.16,0.08124
2058.02,0.08169
2034.87,0.08312
2011.73,0.08443
1988.58,0.08186
1965.44,0.07809
1942.29,0.07243
1919.14,0.07945
1896,0.08001
1872.85,0.08040
1849.71,0.07610
1826.56,0.06673
1803.42,0.06647
1780.27,0.06083
1757.13,0.05453
1733.98,0.04953
1710.84,0.06963
1687.69,0.06140
1664.54,0.06052
1641.4,0.06058
1618.25,0.06288
1595.11,0.06433
1571.96,0.05854
1548.82,0.06014
1525.67,0.05962
1502.53,0.05690
1479.38,0.05415
1456.24,0.05713
1433.09,0.05536
1409.94,0.05555
1386.8,0.05429
1363.65,0.05465
1340.51,0.05251
1317.36,0.05226
1294.22,0.04724
1271.07,0.06558
1247.93,0.07226
1224.78,0.06781
1201.64,0.06288
1178.49,0.06041
1155.34,0.05861
1132.2,0.05398
1109.05,0.06449
1085.91,0.06637
1062.76,0.06429
1039.62,0.06156
1016.47,0.06475
993.326,0.06091
970.18,0.06055
947.035,0.06370
923.89,0.06285
900.744,0.06252
877.599,0.06042
854.453,0.06261
831.308,0.06142
808.162,0.06308
785.017,0.06023
761.871,0.05867
738.726,0.05140
715.58,0.06022
692.435,0.05946
669.29,0.05930
646.144,0.05708
622.999,0.05839
599.853,0.06309