File: 01_Data/PEVA/FTIR/IS/PEVA_0.10_IS_T_240808_R12.dpt
7496.93,0.02984
7473.78,0.03370
7450.64,0.03784
7427.49,0.03819
7404.35,0.02381
7381.2,0.03835
7358.06,0.02696
7334.91,0.03565
7311.77,0.03455
7288.62,0.04233
7265.48,0.02109
7242.34,0.04054
7219.19,0.02750
7196.05,0.04259
7172.9,0.03025
7149.76,0.03493
7126.61,0.02747
7103.47,0.04557
7080.32,0.04111
7057.18,0.03619
7034.03,0.03562
7010.89,0.03046
6987.74,0.03740
6964.6,0.03236
6941.46,0.02768
6918.31,0.03511
6895.17,0.02977
6872.02,0.02590
6848.88,0.03730
6825.73,0.02854
6802.59,0.03321
6779.44,0.03052
6756.3,0.03185
6733.15,0.03097
6710.01,0.03100
6686.86,0.03238
6663.72,0.03278
6640.58,0.03193
6617.43,0.03355
6594.29,0.02657
6571.14,0.02539
6548,0.03110
6524.85,0.03244
6501.71,0.03211
6478.56,0.03134
6455.42,0.02702
6432.27,0.03550
6409.13,0.03073
6385.98,0.03148
6362.84,0.03102
6339.7,0.03040
6316.55,0.02973
6293.41,0.02946
6270.26,0.03297
6247.12,0.03107
6223.97,0.02944
6200.83,0.02737
6177.68,0.03223
6154.54,0.03177
6131.39,0.03028
6108.25,0.03275
6085.1,0.02858
6061.96,0.03114
6038.82,0.02957
6015.67,0.02767
5992.53,0.03293
5969.38,0.03186
5946.24,0.03036
5923.09,0.03021
5899.95,0.03091
5876.8,0.02917
5853.66,0.03109
5830.51,0.02912
5807.37,0.02797
5784.22,0.02861
5761.08,0.02988
5737.94,0.03158
5714.79,0.02997
5691.65,0.03041
5668.5,0.03127
5645.36,0.03063
5622.21,0.03153
5599.07,0.02974
5575.92,0.02969
5552.78,0.02956
5529.63,0.02989
5506.49,0.03035
5483.34,0.03006
5460.2,0.03042
5437.06,0.03051
5413.91,0.03173
5390.77,0.03060
5367.62,0.03022
5344.48,0.02953
5321.33,0.02821
5298.19,0.03058
5275.04,0.02968
5251.9,0.03037
5228.75,0.02949
5205.61,0.02828
5182.46,0.02879
5159.32,0.02895
5136.18,0.03060
5113.03,0.02915
5089.89,0.02963
5066.74,0.02943
5043.6,0.02975
5020.45,0.03013
4997.31,0.02946
4974.16,0.02992
4951.02,0.03022
4927.87,0.02849
4904.73,0.02974
4881.58,0.03005
4858.44,0.03070
4835.3,0.02948
4812.15,0.03091
4789.01,0.02916
4765.86,0.03037
4742.72,0.03063
4719.57,0.02946
4696.43,0.02956
4673.28,0.02985
4650.14,0.02907
4626.99,0.02982
4603.85,0.02963
4580.7,0.03006
4557.56,0.02888
4534.42,0.02907
4511.27,0.02987
4488.13,0.03002
4464.98,0.02926
4441.84,0.02943
4418.69,0.03011
4395.55,0.03045
4372.4,0.02945
4349.26,0.02976
4326.11,0.02962
4302.97,0.02934
4279.82,0.03033
4256.68,0.02964
4233.54,0.03026
4210.39,0.02987
4187.25,0.02960
4164.1,0.02981
4140.96,0.03014
4117.81,0.03064
4094.67,0.02958
4071.52,0.02967
4048.38,0.02966
4025.23,0.02959
4002.09,0.02971
3978.94,0.02955
3955.8,0.02997
3932.66,0.02964
3909.51,0.02914
3886.37,0.02925
3863.22,0.03028
3840.08,0.03093
3816.93,0.03029
3793.79,0.02971
3770.64,0.02987
3747.5,0.02928
3724.35,0.03008
3701.21,0.02952
3678.06,0.02874
3654.92,0.02847
3631.78,0.02836
3608.63,0.02876
3585.49,0.02711
3562.34,0.02617
3539.2,0.02665
3516.05,0.02673
3492.91,0.02608
3469.76,0.02547
3446.62,0.02612
3423.47,0.02561
3400.33,0.02595
3377.18,0.02631
3354.04,0.02574
3330.9,0.02536
3307.75,0.02604
3284.61,0.02577
3261.46,0.02598
3238.32,0.02667
3215.17,0.02661
3192.03,0.02666
3168.88,0.02632
3145.74,0.02651
3122.59,0.02700
3099.45,0.02669
3076.3,0.02697
3053.16,0.02699
3030.02,0.02670
3006.87,0.02639
2983.73,0.02617
2960.58,0.02531
2937.44,0.02539
2914.29,0.02589
2891.15,0.02653
2868,0.02679
2844.86,0.02666
2821.71,0.02705
2798.57,0.02689
2775.42,0.02775
2752.28,0.02716
2729.14,0.02743
2705.99,0.02683
2682.85,0.02709
2659.7,0.02693
2636.56,0.02678
2613.41,0.02710
2590.27,0.02702
2567.12,0.02701
2543.98,0.02648
2520.83,0.02655
2497.69,0.02666
2474.55,0.02667
2451.4,0.02713
2428.26,0.02677
2405.11,0.02661
2381.97,0.02696
2358.82,0.02679
2335.68,0.02698
2312.53,0.02640
2289.39,0.02644
2266.24,0.02645
2243.1,0.02631
2219.95,0.02632
2196.81,0.02654
2173.67,0.02587
2150.52,0.02596
2127.38,0.02603
2104.23,0.02600
2081.09,0.02567
2057.94,0.02581
2034.8,0.02583
2011.65,0.02573
1988.51,0.02573
1965.36,0.02582
1942.22,0.02593
1919.07,0.02552
1895.93,0.02534
1872.79,0.02543
1849.64,0.02441
1826.5,0.02440
1803.35,0.02398
1780.21,0.02362
1757.06,0.02177
1733.92,0.02334
1710.77,0.02408
1687.63,0.02308
1664.48,0.02193
1641.34,0.02144
1618.19,0.02248
1595.05,0.02262
1571.91,0.02194
1548.76,0.02159
1525.62,0.02186
1502.47,0.02246
1479.33,0.02186
1456.18,0.02154
1433.04,0.02140
1409.89,0.02108
1386.75,0.02096
1363.6,0.02082
1340.46,0.02070
1317.31,0.02012
1294.17,0.02041
1271.03,0.02138
1247.88,0.02230
1224.74,0.02204
1201.59,0.02102
1178.45,0.01987
1155.3,0.02020
1132.16,0.02065
1109.01,0.02099
1085.87,0.02189
1062.72,0.02385
1039.58,0.02297
1016.43,0.02308
993.29,0.02441
970.145,0.02355
947,0.02276
923.856,0.02193
900.711,0.02267
877.567,0.02173
854.422,0.02241
831.277,0.02137
808.133,0.02114
784.988,0.01978
761.844,0.02071
738.699,0.02007
715.554,0.01976
692.41,0.01901
669.265,0.01767
646.12,0.01847
622.976,0.01685
599.831,0.01997