File: 01_Data/PEVA/FTIR/IS/PEVA_0.26_IS_T_240809_R6.dpt
7497.2,0.04589
7474.05,0.03164
7450.91,0.02241
7427.76,0.03299
7404.62,0.03557
7381.47,0.03043
7358.33,0.03407
7335.18,0.03339
7312.04,0.02104
7288.89,0.03608
7265.75,0.03220
7242.6,0.03830
7219.45,0.03838
7196.31,0.03340
7173.16,0.03322
7150.02,0.03895
7126.87,0.03226
7103.73,0.03416
7080.58,0.03508
7057.44,0.02242
7034.29,0.03160
7011.15,0.02979
6988,0.02484
6964.85,0.03315
6941.71,0.03798
6918.56,0.03199
6895.42,0.03132
6872.27,0.02913
6849.13,0.03397
6825.98,0.03399
6802.84,0.03656
6779.69,0.03080
6756.55,0.03841
6733.4,0.03758
6710.25,0.03142
6687.11,0.02496
6663.96,0.03346
6640.82,0.03050
6617.67,0.03610
6594.53,0.02845
6571.38,0.03356
6548.24,0.02656
6525.09,0.03233
6501.95,0.02969
6478.8,0.03151
6455.65,0.02958
6432.51,0.03033
6409.36,0.03503
6386.22,0.03090
6363.07,0.02788
6339.93,0.02896
6316.78,0.03048
6293.64,0.03084
6270.49,0.03015
6247.34,0.02880
6224.2,0.03456
6201.05,0.02793
6177.91,0.03323
6154.76,0.03333
6131.62,0.02858
6108.47,0.02810
6085.33,0.03491
6062.18,0.03053
6039.04,0.03065
6015.89,0.02920
5992.74,0.03157
5969.6,0.02816
5946.45,0.03083
5923.31,0.02994
5900.16,0.03060
5877.02,0.03319
5853.87,0.03188
5830.73,0.03167
5807.58,0.02943
5784.44,0.03027
5761.29,0.02884
5738.14,0.02988
5715,0.03170
5691.85,0.02876
5668.71,0.03114
5645.56,0.02915
5622.42,0.02883
5599.27,0.03168
5576.13,0.02937
5552.98,0.02999
5529.84,0.03125
5506.69,0.02842
5483.54,0.03278
5460.4,0.02921
5437.25,0.03273
5414.11,0.03184
5390.96,0.02928
5367.82,0.03038
5344.67,0.03000
5321.53,0.03076
5298.38,0.02895
5275.24,0.03109
5252.09,0.03122
5228.94,0.03035
5205.8,0.03074
5182.65,0.03136
5159.51,0.03154
5136.36,0.03070
5113.22,0.02840
5090.07,0.02926
5066.93,0.03136
5043.78,0.03085
5020.64,0.03019
4997.49,0.03124
4974.34,0.03110
4951.2,0.02989
4928.05,0.03117
4904.91,0.03025
4881.76,0.03042
4858.62,0.03035
4835.47,0.03056
4812.33,0.02993
4789.18,0.03031
4766.04,0.03037
4742.89,0.03080
4719.74,0.02955
4696.6,0.03079
4673.45,0.03036
4650.31,0.03029
4627.16,0.03034
4604.02,0.03024
4580.87,0.03069
4557.73,0.03046
4534.58,0.03016
4511.44,0.03145
4488.29,0.02965
4465.14,0.03034
4442,0.03055
4418.85,0.02986
4395.71,0.03120
4372.56,0.03102
4349.42,0.03172
4326.27,0.03023
4303.13,0.03021
4279.98,0.03037
4256.84,0.03087
4233.69,0.03068
4210.54,0.03016
4187.4,0.03026
4164.25,0.03012
4141.11,0.03054
4117.96,0.03028
4094.82,0.03096
4071.67,0.02994
4048.53,0.03002
4025.38,0.03053
4002.24,0.03033
3979.09,0.03030
3955.94,0.02984
3932.8,0.02982
3909.65,0.02995
3886.51,0.03003
3863.36,0.03064
3840.22,0.03141
3817.07,0.03038
3793.93,0.02999
3770.78,0.03073
3747.64,0.03095
3724.49,0.02981
3701.34,0.02922
3678.2,0.02956
3655.05,0.02886
3631.91,0.02980
3608.76,0.02820
3585.62,0.02789
3562.47,0.02703
3539.33,0.02697
3516.18,0.02648
3493.04,0.02696
3469.89,0.02686
3446.74,0.02613
3423.6,0.02719
3400.45,0.02710
3377.31,0.02663
3354.16,0.02661
3331.02,0.02603
3307.87,0.02708
3284.73,0.02596
3261.58,0.02597
3238.44,0.02767
3215.29,0.02661
3192.14,0.02711
3169,0.02700
3145.85,0.02701
3122.71,0.02668
3099.56,0.02666
3076.42,0.02715
3053.27,0.02748
3030.13,0.02685
3006.98,0.02690
2983.84,0.02597
2960.69,0.02537
2937.54,0.02568
2914.4,0.02644
2891.25,0.02669
2868.11,0.02634
2844.96,0.02712
2821.82,0.02714
2798.67,0.02717
2775.53,0.02721
2752.38,0.02727
2729.24,0.02746
2706.09,0.02705
2682.94,0.02750
2659.8,0.02737
2636.65,0.02677
2613.51,0.02689
2590.36,0.02682
2567.22,0.02709
2544.07,0.02693
2520.93,0.02702
2497.78,0.02704
2474.64,0.02735
2451.49,0.02692
2428.34,0.02699
2405.2,0.02697
2382.05,0.02701
2358.91,0.02765
2335.76,0.02755
2312.62,0.02736
2289.47,0.02655
2266.33,0.02668
2243.18,0.02647
2220.04,0.02663
2196.89,0.02641
2173.74,0.02639
2150.6,0.02611
2127.45,0.02624
2104.31,0.02597
2081.16,0.02569
2058.02,0.02594
2034.87,0.02614
2011.73,0.02611
1988.58,0.02590
1965.44,0.02563
1942.29,0.02583
1919.14,0.02516
1896,0.02530
1872.85,0.02519
1849.71,0.02507
1826.56,0.02467
1803.42,0.02420
1780.27,0.02362
1757.13,0.02203
1733.98,0.02383
1710.84,0.02405
1687.69,0.02354
1664.54,0.02180
1641.4,0.02178
1618.25,0.02267
1595.11,0.02255
1571.96,0.02176
1548.82,0.02178
1525.67,0.02308
1502.53,0.02252
1479.38,0.02216
1456.24,0.02212
1433.09,0.02172
1409.94,0.02126
1386.8,0.02097
1363.65,0.02099
1340.51,0.02030
1317.36,0.01996
1294.22,0.02042
1271.07,0.02195
1247.93,0.02278
1224.78,0.02225
1201.64,0.02165
1178.49,0.02112
1155.34,0.02023
1132.2,0.02116
1109.05,0.02236
1085.91,0.02178
1062.76,0.02440
1039.62,0.02335
1016.47,0.02287
993.326,0.02465
970.18,0.02362
947.035,0.02344
923.89,0.02303
900.744,0.02264
877.599,0.02293
854.453,0.02154
831.308,0.02229
808.162,0.02143
785.017,0.02103
761.871,0.02013
738.726,0.02048
715.58,0.01913
692.435,0.01931
669.29,0.01864
646.144,0.01782
622.999,0.01892
599.853,0.01505