File: 01_Data/PEVA/FTIR/IS/PEVA_0.18_IS_Trans_S_240819_R7.dpt
7496.91,0.94234
7473.76,0.92992
7450.62,0.94574
7427.47,0.91698
7404.33,0.91986
7381.18,0.92091
7358.04,0.93312
7334.89,0.93124
7311.75,0.92010
7288.61,0.91126
7265.46,0.91227
7242.32,0.91875
7219.17,0.91559
7196.03,0.91653
7172.88,0.91588
7149.74,0.93305
7126.59,0.91772
7103.45,0.91557
7080.3,0.90566
7057.16,0.92179
7034.02,0.91761
7010.87,0.91948
6987.73,0.92380
6964.58,0.91902
6941.44,0.92293
6918.29,0.91857
6895.15,0.92619
6872,0.92813
6848.86,0.92032
6825.71,0.93229
6802.57,0.92892
6779.43,0.93350
6756.28,0.92155
6733.14,0.92676
6709.99,0.93395
6686.85,0.93159
6663.7,0.93821
6640.56,0.92995
6617.41,0.93645
6594.27,0.93115
6571.12,0.92857
6547.98,0.93913
6524.84,0.93590
6501.69,0.94039
6478.55,0.93488
6455.4,0.93233
6432.26,0.94222
6409.11,0.93935
6385.97,0.93148
6362.82,0.93680
6339.68,0.93140
6316.53,0.93528
6293.39,0.93663
6270.24,0.93537
6247.1,0.93141
6223.96,0.93627
6200.81,0.93071
6177.67,0.93590
6154.52,0.93115
6131.38,0.93743
6108.23,0.93227
6085.09,0.93211
6061.94,0.92878
6038.8,0.92350
6015.65,0.92559
5992.51,0.91705
5969.37,0.91525
5946.22,0.91484
5923.08,0.90663
5899.93,0.90138
5876.79,0.88797
5853.64,0.85772
5830.5,0.82345
5807.35,0.78836
5784.21,0.73151
5761.06,0.78084
5737.92,0.84386
5714.78,0.85482
5691.63,0.83821
5668.49,0.81331
5645.34,0.85118
5622.2,0.86647
5599.05,0.87223
5575.91,0.87359
5552.76,0.86785
5529.62,0.87074
5506.47,0.86758
5483.33,0.87594
5460.19,0.86878
5437.04,0.87244
5413.9,0.86664
5390.75,0.88571
5367.61,0.89362
5344.46,0.87621
5321.32,0.89966
5298.17,0.89980
5275.03,0.89921
5251.88,0.89365
5228.74,0.89100
5205.6,0.88611
5182.45,0.89690
5159.31,0.89655
5136.16,0.90128
5113.02,0.90232
5089.87,0.90568
5066.73,0.90413
5043.58,0.90577
5020.44,0.90548
4997.29,0.90350
4974.15,0.90204
4951.01,0.90461
4927.86,0.90708
4904.72,0.90687
4881.57,0.90557
4858.43,0.90737
4835.28,0.90869
4812.14,0.91203
4788.99,0.91210
4765.85,0.90970
4742.7,0.90898
4719.56,0.90941
4696.42,0.90525
4673.27,0.89851
4650.13,0.90759
4626.98,0.91189
4603.84,0.91110
4580.69,0.91017
4557.55,0.90826
4534.4,0.90474
4511.26,0.89731
4488.11,0.88629
4464.97,0.86985
4441.83,0.83742
4418.68,0.80622
4395.54,0.75287
4372.39,0.67159
4349.25,0.51172
4326.1,0.28021
4302.96,0.59596
4279.81,0.57606
4256.67,0.38580
4233.52,0.53369
4210.38,0.50423
4187.24,0.45124
4164.09,0.46626
4140.95,0.48282
4117.8,0.49973
4094.66,0.51016
4071.51,0.58446
4048.37,0.61464
4025.22,0.63384
4002.08,0.68977
3978.93,0.68318
3955.79,0.70014
3932.65,0.68720
3909.5,0.69510
3886.36,0.68594
3863.21,0.69066
3840.07,0.68557
3816.92,0.69779
3793.78,0.74745
3770.63,0.74912
3747.49,0.71514
3724.34,0.73701
3701.2,0.74418
3678.06,0.71235
3654.91,0.70226
3631.77,0.70015
3608.62,0.65520
3585.48,0.76523
3562.33,0.79420
3539.19,0.81789
3516.04,0.82368
3492.9,0.81642
3469.75,0.72498
3446.61,0.69249
3423.47,0.79218
3400.32,0.80638
3377.18,0.79558
3354.03,0.80499
3330.89,0.81858
3307.74,0.82016
3284.6,0.81941
3261.45,0.81300
3238.31,0.80526
3215.16,0.78834
3192.02,0.76796
3168.87,0.74685
3145.73,0.72259
3122.59,0.67955
3099.44,0.58640
3076.3,0.46030
3053.15,0.36536
3030.01,0.23176
3006.86,0.14224
2983.72,0.03382
2960.57,0.00057
2937.43,0.00035
2914.28,0.00041
2891.14,0.00083
2868,0.00049
2844.85,0.00062
2821.71,0.00885
2798.56,0.08075
2775.42,0.21216
2752.27,0.27378
2729.13,0.29436
2705.98,0.34589
2682.84,0.31668
2659.69,0.32226
2636.55,0.34568
2613.41,0.43446
2590.26,0.51869
2567.12,0.60546
2543.97,0.65376
2520.83,0.67761
2497.68,0.70390
2474.54,0.69022
2451.39,0.74671
2428.25,0.75653
2405.1,0.74488
2381.96,0.72966
2358.82,0.58867
2335.67,0.57422
2312.53,0.64108
2289.38,0.71742
2266.24,0.74534
2243.09,0.76550
2219.95,0.79458
2196.8,0.77873
2173.66,0.75017
2150.51,0.74104
2127.37,0.78668
2104.23,0.79870
2081.08,0.79363
2057.94,0.77211
2034.79,0.72871
2011.65,0.73063
1988.5,0.79442
1965.36,0.79165
1942.21,0.77480
1919.07,0.75705
1895.92,0.70648
1872.78,0.70237
1849.64,0.69774
1826.49,0.63453
1803.35,0.54879
1780.2,0.38558
1757.06,0.05046
1733.91,0.00086
1710.77,0.15291
1687.62,0.34366
1664.48,0.52565
1641.33,0.55292
1618.19,0.63852
1595.05,0.65310
1571.9,0.61506
1548.76,0.57795
1525.61,0.50836
1502.47,0.43048
1479.32,0.11086
1456.18,0.00106
1433.03,0.02344
1409.89,0.26743
1386.74,0.07711
1363.6,0.00268
1340.46,0.21983
1317.31,0.24461
1294.17,0.12729
1271.02,0.01596
1247.88,0.00034
1224.73,0.00015
1201.59,0.09083
1178.44,0.20809
1155.3,0.17965
1132.15,0.12234
1109.01,0.15763
1085.87,0.12633
1062.72,0.07605
1039.58,0.02456
1016.43,0.00194
993.287,0.20837
970.142,0.18375
946.998,0.17356
923.853,0.38698
900.709,0.48515
877.564,0.50242
854.42,0.53288
831.275,0.60518
808.131,0.58954
784.986,0.62669
761.842,0.56566
738.697,0.30888
715.552,0.05111
692.408,0.70086
669.263,0.69165
646.119,0.57204
622.974,0.54635
599.83,0.52335