File: 01_Data/PEVA/FTIR/IS/PEVA_0.18_IS_S_240809_R3.dpt
7497.33,0.09327
7474.19,0.11077
7451.04,0.10106
7427.9,0.10338
7404.75,0.09561
7381.6,0.10422
7358.46,0.09555
7335.31,0.10387
7312.17,0.09581
7289.02,0.09690
7265.87,0.09900
7242.73,0.10006
7219.58,0.10454
7196.44,0.10542
7173.29,0.09496
7150.15,0.10332
7127,0.09267
7103.85,0.09402
7080.71,0.10433
7057.56,0.09126
7034.42,0.10297
7011.27,0.09424
6988.12,0.10312
6964.98,0.10115
6941.83,0.10354
6918.69,0.09547
6895.54,0.08993
6872.39,0.09669
6849.25,0.09819
6826.1,0.09799
6802.96,0.09577
6779.81,0.09785
6756.67,0.09806
6733.52,0.09491
6710.37,0.09579
6687.23,0.10340
6664.08,0.10365
6640.94,0.09689
6617.79,0.09568
6594.64,0.09344
6571.5,0.09788
6548.35,0.09212
6525.21,0.10033
6502.06,0.09512
6478.92,0.09319
6455.77,0.09791
6432.62,0.09722
6409.48,0.10118
6386.33,0.09543
6363.19,0.10086
6340.04,0.10456
6316.89,0.09797
6293.75,0.10205
6270.6,0.09896
6247.46,0.09724
6224.31,0.09855
6201.16,0.10131
6178.02,0.10063
6154.87,0.10129
6131.73,0.09800
6108.58,0.09743
6085.44,0.10039
6062.29,0.10065
6039.14,0.09699
6016,0.09883
5992.85,0.09525
5969.71,0.09542
5946.56,0.09661
5923.41,0.09556
5900.27,0.09446
5877.12,0.09158
5853.98,0.09222
5830.83,0.08933
5807.68,0.08522
5784.54,0.08585
5761.39,0.08835
5738.25,0.09202
5715.1,0.09226
5691.96,0.09292
5668.81,0.09152
5645.66,0.09206
5622.52,0.09234
5599.37,0.09524
5576.23,0.09610
5553.08,0.09281
5529.93,0.09540
5506.79,0.09327
5483.64,0.09603
5460.5,0.09473
5437.35,0.09762
5414.21,0.09818
5391.06,0.09937
5367.91,0.09739
5344.77,0.09793
5321.62,0.09628
5298.48,0.09537
5275.33,0.09813
5252.18,0.09449
5229.04,0.09727
5205.89,0.09623
5182.75,0.09766
5159.6,0.10026
5136.45,0.09851
5113.31,0.09802
5090.16,0.09776
5067.02,0.09887
5043.87,0.09909
5020.73,0.09793
4997.58,0.09714
4974.43,0.09719
4951.29,0.09945
4928.14,0.09820
4905,0.09963
4881.85,0.09876
4858.7,0.09885
4835.56,0.09911
4812.41,0.09848
4789.27,0.09948
4766.12,0.09990
4742.97,0.10126
4719.83,0.10039
4696.68,0.10044
4673.54,0.09719
4650.39,0.09855
4627.25,0.09830
4604.1,0.09923
4580.95,0.09897
4557.81,0.09830
4534.66,0.09940
4511.52,0.09929
4488.37,0.09837
4465.22,0.09694
4442.08,0.09331
4418.93,0.09114
4395.79,0.08569
4372.64,0.07985
4349.49,0.07086
4326.35,0.06308
4303.2,0.07677
4280.06,0.07569
4256.91,0.06700
4233.77,0.07350
4210.62,0.07248
4187.47,0.06935
4164.33,0.06997
4141.18,0.07049
4118.04,0.07114
4094.89,0.07219
4071.74,0.07682
4048.6,0.07877
4025.45,0.08000
4002.31,0.08296
3979.16,0.08229
3956.02,0.08350
3932.87,0.08268
3909.72,0.08240
3886.58,0.08412
3863.43,0.08581
3840.29,0.08658
3817.14,0.08726
3793.99,0.08861
3770.85,0.08926
3747.7,0.08875
3724.56,0.08842
3701.41,0.08679
3678.26,0.08511
3655.12,0.08376
3631.97,0.08486
3608.83,0.08101
3585.68,0.08905
3562.54,0.09124
3539.39,0.09213
3516.24,0.09125
3493.1,0.09011
3469.95,0.08249
3446.81,0.08007
3423.66,0.08799
3400.51,0.08855
3377.37,0.08816
3354.22,0.08843
3331.08,0.08920
3307.93,0.08921
3284.78,0.08820
3261.64,0.08753
3238.49,0.08711
3215.35,0.08659
3192.2,0.08499
3169.06,0.08381
3145.91,0.08237
3122.76,0.07853
3099.62,0.07192
3076.47,0.06398
3053.33,0.05992
3030.18,0.05547
3007.03,0.05428
2983.89,0.05165
2960.74,0.04691
2937.6,0.03943
2914.45,0.08676
2891.31,0.06743
2868.16,0.05872
2845.01,0.08299
2821.87,0.06694
2798.72,0.06664
2775.58,0.06744
2752.43,0.06681
2729.28,0.06581
2706.14,0.06686
2682.99,0.06603
2659.85,0.06722
2636.7,0.06830
2613.55,0.07236
2590.41,0.07637
2567.26,0.08048
2544.12,0.08182
2520.97,0.08276
2497.83,0.08502
2474.68,0.08509
2451.53,0.09019
2428.39,0.09193
2405.24,0.09056
2382.1,0.09035
2358.95,0.08710
2335.8,0.08218
2312.66,0.08241
2289.51,0.08398
2266.37,0.08594
2243.22,0.08791
2220.07,0.09249
2196.93,0.09288
2173.78,0.09152
2150.64,0.09068
2127.49,0.09309
2104.35,0.09211
2081.2,0.09007
2058.05,0.08732
2034.91,0.08462
2011.76,0.08567
1988.62,0.09138
1965.47,0.09181
1942.32,0.09147
1919.18,0.08971
1896.03,0.08499
1872.89,0.08421
1849.74,0.08305
1826.6,0.07779
1803.45,0.07261
1780.3,0.06663
1757.16,0.06297
1734.01,0.05907
1710.87,0.05786
1687.72,0.06361
1664.57,0.07028
1641.43,0.07085
1618.28,0.07714
1595.14,0.07747
1571.99,0.07570
1548.84,0.07464
1525.7,0.07284
1502.55,0.06831
1479.41,0.05456
1456.26,0.06260
1433.12,0.05987
1409.97,0.06065
1386.82,0.05312
1363.68,0.05646
1340.53,0.05868
1317.39,0.06067
1294.24,0.06217
1271.09,0.06565
1247.95,0.06301
1224.8,0.05106
1201.66,0.05775
1178.51,0.05958
1155.36,0.05852
1132.22,0.05865
1109.07,0.06145
1085.93,0.06163
1062.78,0.06249
1039.64,0.06301
1016.49,0.06171
993.344,0.06139
970.198,0.05914
947.052,0.05908
923.906,0.06575
900.76,0.07178
877.614,0.07205
854.468,0.07033
831.323,0.07434
808.177,0.07580
785.031,0.08052
761.885,0.07699
738.739,0.05768
715.593,0.06179
692.447,0.08979
669.301,0.07906
646.156,0.06545
623.01,0.06561
599.864,0.06233