File: 01_Data/PEVA/FTIR/IS/PEVA_0.26_IS_T_240809_R5.dpt
7497.2,0.01721
7474.05,0.04360
7450.91,0.03876
7427.76,0.03450
7404.62,0.04443
7381.47,0.03295
7358.33,0.02894
7335.18,0.03331
7312.04,0.03635
7288.89,0.04642
7265.75,0.03185
7242.6,0.03932
7219.45,0.02454
7196.31,0.02864
7173.16,0.02998
7150.02,0.03890
7126.87,0.02998
7103.73,0.03590
7080.58,0.04033
7057.44,0.03064
7034.29,0.03265
7011.15,0.02744
6988,0.02061
6964.85,0.04012
6941.71,0.03275
6918.56,0.02832
6895.42,0.03777
6872.27,0.03606
6849.13,0.03276
6825.98,0.03201
6802.84,0.03308
6779.69,0.02913
6756.55,0.03185
6733.4,0.03721
6710.25,0.02855
6687.11,0.03062
6663.96,0.03138
6640.82,0.03056
6617.67,0.02719
6594.53,0.03244
6571.38,0.03048
6548.24,0.03175
6525.09,0.03277
6501.95,0.03375
6478.8,0.02519
6455.65,0.03273
6432.51,0.02502
6409.36,0.02904
6386.22,0.03089
6363.07,0.03677
6339.93,0.03220
6316.78,0.03689
6293.64,0.02739
6270.49,0.03316
6247.34,0.03557
6224.2,0.03213
6201.05,0.02846
6177.91,0.02866
6154.76,0.03473
6131.62,0.02931
6108.47,0.03060
6085.33,0.03256
6062.18,0.03101
6039.04,0.03218
6015.89,0.03058
5992.74,0.02900
5969.6,0.03104
5946.45,0.03134
5923.31,0.03001
5900.16,0.02795
5877.02,0.03197
5853.87,0.02892
5830.73,0.02950
5807.58,0.02922
5784.44,0.03143
5761.29,0.03006
5738.14,0.03064
5715,0.03399
5691.85,0.03091
5668.71,0.03003
5645.56,0.03323
5622.42,0.03275
5599.27,0.02942
5576.13,0.03091
5552.98,0.03138
5529.84,0.03131
5506.69,0.02918
5483.54,0.02935
5460.4,0.02938
5437.25,0.02990
5414.11,0.03102
5390.96,0.03341
5367.82,0.03092
5344.67,0.03033
5321.53,0.03318
5298.38,0.03127
5275.24,0.03124
5252.09,0.03025
5228.94,0.03291
5205.8,0.02999
5182.65,0.03172
5159.51,0.03092
5136.36,0.02989
5113.22,0.02952
5090.07,0.03054
5066.93,0.03007
5043.78,0.03081
5020.64,0.03109
4997.49,0.03170
4974.34,0.03007
4951.2,0.03090
4928.05,0.02921
4904.91,0.03089
4881.76,0.03133
4858.62,0.03022
4835.47,0.03048
4812.33,0.03011
4789.18,0.03027
4766.04,0.03117
4742.89,0.02910
4719.74,0.02984
4696.6,0.03064
4673.45,0.03029
4650.31,0.03073
4627.16,0.03008
4604.02,0.03075
4580.87,0.03049
4557.73,0.03091
4534.58,0.03225
4511.44,0.03028
4488.29,0.03078
4465.14,0.03105
4442,0.03111
4418.85,0.03056
4395.71,0.03174
4372.56,0.03102
4349.42,0.03005
4326.27,0.03012
4303.13,0.03100
4279.98,0.02978
4256.84,0.03120
4233.69,0.03017
4210.54,0.03052
4187.4,0.03040
4164.25,0.03066
4141.11,0.03074
4117.96,0.03129
4094.82,0.03143
4071.67,0.03084
4048.53,0.02999
4025.38,0.03035
4002.24,0.03081
3979.09,0.03100
3955.94,0.03050
3932.8,0.03171
3909.65,0.03078
3886.51,0.03060
3863.36,0.03049
3840.22,0.03150
3817.07,0.03190
3793.93,0.03066
3770.78,0.03096
3747.64,0.03120
3724.49,0.03000
3701.34,0.02998
3678.2,0.03044
3655.05,0.02946
3631.91,0.02997
3608.76,0.02810
3585.62,0.02798
3562.47,0.02738
3539.33,0.02842
3516.18,0.02725
3493.04,0.02657
3469.89,0.02704
3446.74,0.02658
3423.6,0.02753
3400.45,0.02585
3377.31,0.02611
3354.16,0.02581
3331.02,0.02616
3307.87,0.02623
3284.73,0.02621
3261.58,0.02679
3238.44,0.02702
3215.29,0.02722
3192.14,0.02757
3169,0.02725
3145.85,0.02725
3122.71,0.02720
3099.56,0.02687
3076.42,0.02783
3053.27,0.02757
3030.13,0.02779
3006.98,0.02725
2983.84,0.02657
2960.69,0.02535
2937.54,0.02610
2914.4,0.02665
2891.25,0.02670
2868.11,0.02666
2844.96,0.02770
2821.82,0.02730
2798.67,0.02759
2775.53,0.02789
2752.38,0.02777
2729.24,0.02762
2706.09,0.02796
2682.94,0.02805
2659.8,0.02787
2636.65,0.02754
2613.51,0.02743
2590.36,0.02758
2567.22,0.02764
2544.07,0.02773
2520.93,0.02754
2497.78,0.02743
2474.64,0.02717
2451.49,0.02720
2428.34,0.02729
2405.2,0.02754
2382.05,0.02757
2358.91,0.02739
2335.76,0.02773
2312.62,0.02740
2289.47,0.02718
2266.33,0.02659
2243.18,0.02698
2220.04,0.02686
2196.89,0.02678
2173.74,0.02676
2150.6,0.02639
2127.45,0.02658
2104.31,0.02615
2081.16,0.02680
2058.02,0.02641
2034.87,0.02623
2011.73,0.02634
1988.58,0.02626
1965.44,0.02625
1942.29,0.02611
1919.14,0.02555
1896,0.02575
1872.85,0.02605
1849.71,0.02524
1826.56,0.02538
1803.42,0.02484
1780.27,0.02398
1757.13,0.02214
1733.98,0.02428
1710.84,0.02467
1687.69,0.02330
1664.54,0.02243
1641.4,0.02234
1618.25,0.02271
1595.11,0.02306
1571.96,0.02243
1548.82,0.02204
1525.67,0.02262
1502.53,0.02247
1479.38,0.02224
1456.24,0.02175
1433.09,0.02176
1409.94,0.02162
1386.8,0.02144
1363.65,0.02119
1340.51,0.02090
1317.36,0.02005
1294.22,0.02088
1271.07,0.02220
1247.93,0.02259
1224.78,0.02209
1201.64,0.02159
1178.49,0.02091
1155.34,0.02033
1132.2,0.02115
1109.05,0.02114
1085.91,0.02163
1062.76,0.02324
1039.62,0.02318
1016.47,0.02293
993.326,0.02447
970.18,0.02415
947.035,0.02319
923.89,0.02293
900.744,0.02271
877.599,0.02245
854.453,0.02208
831.308,0.02235
808.162,0.02172
785.017,0.02129
761.871,0.02116
738.726,0.02028
715.58,0.01964
692.435,0.01953
669.29,0.01967
646.144,0.01862
622.999,0.01945
599.853,0.01645