File: 01_Data/PEVA/FTIR/IS/PEVA_0.18_IS_S_240809_R7.dpt
7497.33,0.11187
7474.19,0.11212
7451.04,0.10040
7427.9,0.10192
7404.75,0.09878
7381.6,0.09624
7358.46,0.10981
7335.31,0.09960
7312.17,0.10435
7289.02,0.10049
7265.87,0.10182
7242.73,0.08556
7219.58,0.08545
7196.44,0.10101
7173.29,0.09676
7150.15,0.09151
7127,0.09778
7103.85,0.09907
7080.71,0.10054
7057.56,0.10065
7034.42,0.10359
7011.27,0.10010
6988.12,0.10311
6964.98,0.10473
6941.83,0.09724
6918.69,0.10362
6895.54,0.10495
6872.39,0.10079
6849.25,0.09497
6826.1,0.10218
6802.96,0.09933
6779.81,0.10598
6756.67,0.10323
6733.52,0.09682
6710.37,0.10798
6687.23,0.10065
6664.08,0.09732
6640.94,0.10395
6617.79,0.10139
6594.64,0.10234
6571.5,0.10303
6548.35,0.10184
6525.21,0.10277
6502.06,0.10032
6478.92,0.10270
6455.77,0.10623
6432.62,0.09665
6409.48,0.10055
6386.33,0.10420
6363.19,0.10235
6340.04,0.10170
6316.89,0.09862
6293.75,0.10152
6270.6,0.09950
6247.46,0.10553
6224.31,0.10069
6201.16,0.10391
6178.02,0.09510
6154.87,0.10516
6131.73,0.10167
6108.58,0.09969
6085.44,0.10322
6062.29,0.09690
6039.14,0.09875
6016,0.10023
5992.85,0.10172
5969.71,0.10055
5946.56,0.10099
5923.41,0.09891
5900.27,0.10009
5877.12,0.09743
5853.98,0.09524
5830.83,0.09402
5807.68,0.08826
5784.54,0.08300
5761.39,0.08852
5738.25,0.09481
5715.1,0.09627
5691.96,0.09280
5668.81,0.09214
5645.66,0.09654
5622.52,0.09727
5599.37,0.09734
5576.23,0.09303
5553.08,0.09570
5529.93,0.09653
5506.79,0.09727
5483.64,0.09775
5460.5,0.09730
5437.35,0.09851
5414.21,0.09943
5391.06,0.09814
5367.91,0.09900
5344.77,0.09868
5321.62,0.09785
5298.48,0.10087
5275.33,0.10110
5252.18,0.09990
5229.04,0.10256
5205.89,0.10099
5182.75,0.10054
5159.6,0.10027
5136.45,0.10092
5113.31,0.10064
5090.16,0.10109
5067.02,0.10166
5043.87,0.10120
5020.73,0.10091
4997.58,0.10033
4974.43,0.10087
4951.29,0.10090
4928.14,0.10145
4905,0.10224
4881.85,0.10125
4858.7,0.10068
4835.56,0.10138
4812.41,0.10257
4789.27,0.10252
4766.12,0.10267
4742.97,0.10201
4719.83,0.10217
4696.68,0.10106
4673.54,0.10165
4650.39,0.10083
4627.25,0.10171
4604.1,0.10193
4580.95,0.10095
4557.81,0.10188
4534.66,0.10159
4511.52,0.10259
4488.37,0.10077
4465.22,0.09984
4442.08,0.09610
4418.93,0.09318
4395.79,0.08768
4372.64,0.08288
4349.49,0.07298
4326.35,0.06373
4303.2,0.07891
4280.06,0.07675
4256.91,0.06827
4233.77,0.07476
4210.62,0.07298
4187.47,0.07132
4164.33,0.07210
4141.18,0.07192
4118.04,0.07434
4094.89,0.07456
4071.74,0.07846
4048.6,0.08104
4025.45,0.08079
4002.31,0.08446
3979.16,0.08376
3956.02,0.08543
3932.87,0.08479
3909.72,0.08478
3886.58,0.08606
3863.43,0.08687
3840.29,0.08805
3817.14,0.08948
3793.99,0.09106
3770.85,0.09147
3747.7,0.09054
3724.56,0.09099
3701.41,0.08927
3678.26,0.08825
3655.12,0.08486
3631.97,0.08616
3608.83,0.08275
3585.68,0.09050
3562.54,0.09304
3539.39,0.09352
3516.24,0.09341
3493.1,0.09235
3469.95,0.08539
3446.81,0.08301
3423.66,0.09012
3400.51,0.09083
3377.37,0.09038
3354.22,0.08976
3331.08,0.09085
3307.93,0.09026
3284.78,0.09061
3261.64,0.09007
3238.49,0.08938
3215.35,0.08916
3192.2,0.08716
3169.06,0.08586
3145.91,0.08443
3122.76,0.07976
3099.62,0.07311
3076.47,0.06576
3053.33,0.06067
3030.18,0.05707
3007.03,0.05533
2983.89,0.05166
2960.74,0.04875
2937.6,0.04028
2914.45,0.08909
2891.31,0.06930
2868.16,0.06035
2845.01,0.08488
2821.87,0.06786
2798.72,0.06665
2775.58,0.06946
2752.43,0.06994
2729.28,0.06951
2706.14,0.06995
2682.99,0.06790
2659.85,0.06740
2636.7,0.06746
2613.55,0.07128
2590.41,0.07547
2567.26,0.08100
2544.12,0.08418
2520.97,0.08600
2497.83,0.08846
2474.68,0.08795
2451.53,0.09242
2428.39,0.09357
2405.24,0.09181
2382.1,0.09122
2358.95,0.08791
2335.8,0.08281
2312.66,0.08338
2289.51,0.08555
2266.37,0.08699
2243.22,0.09006
2220.07,0.09458
2196.93,0.09455
2173.78,0.09365
2150.64,0.09298
2127.49,0.09533
2104.35,0.09367
2081.2,0.09158
2058.05,0.08899
2034.91,0.08649
2011.76,0.08742
1988.62,0.09357
1965.47,0.09338
1942.32,0.09199
1919.18,0.08935
1896.03,0.08539
1872.89,0.08629
1849.74,0.08773
1826.6,0.08373
1803.45,0.07724
1780.3,0.07111
1757.16,0.06160
1734.01,0.05091
1710.87,0.05944
1687.72,0.06400
1664.57,0.07275
1641.43,0.07186
1618.28,0.07785
1595.14,0.07970
1571.99,0.07952
1548.84,0.07712
1525.7,0.07436
1502.55,0.07011
1479.41,0.05619
1456.26,0.06488
1433.12,0.06195
1409.97,0.06364
1386.82,0.05629
1363.68,0.05613
1340.53,0.05915
1317.39,0.05770
1294.24,0.05525
1271.09,0.05622
1247.95,0.07358
1224.8,0.06239
1201.66,0.05901
1178.51,0.06071
1155.36,0.06037
1132.22,0.06017
1109.07,0.06158
1085.93,0.06002
1062.78,0.05964
1039.64,0.05843
1016.49,0.06271
993.344,0.06345
970.198,0.06053
947.052,0.06161
923.906,0.06759
900.76,0.07671
877.614,0.07659
854.468,0.07297
831.323,0.07062
808.177,0.06973
785.031,0.07856
761.885,0.08324
738.739,0.05949
715.593,0.06297
692.447,0.10039
669.301,0.09355
646.156,0.06226
623.01,0.05689
599.864,0.05236