File: 01_Data/PEVA/FTIR/IS/PEVA_0.10_IS_S_240808_R1.dpt
7496.93,0.10284
7473.78,0.08627
7450.64,0.09436
7427.49,0.08908
7404.35,0.09471
7381.2,0.08215
7358.06,0.09573
7334.91,0.09751
7311.77,0.09886
7288.62,0.10071
7265.48,0.08539
7242.34,0.09054
7219.19,0.09294
7196.05,0.09624
7172.9,0.09712
7149.76,0.09632
7126.61,0.08511
7103.47,0.09565
7080.32,0.09135
7057.18,0.08603
7034.03,0.09664
7010.89,0.09285
6987.74,0.10223
6964.6,0.09513
6941.46,0.10618
6918.31,0.10170
6895.17,0.10071
6872.02,0.09830
6848.88,0.09778
6825.73,0.09558
6802.59,0.09711
6779.44,0.09539
6756.3,0.09835
6733.15,0.09559
6710.01,0.09520
6686.86,0.09804
6663.72,0.10214
6640.58,0.09602
6617.43,0.09282
6594.29,0.10069
6571.14,0.09468
6548,0.10561
6524.85,0.09220
6501.71,0.09627
6478.56,0.09614
6455.42,0.09928
6432.27,0.09154
6409.13,0.09413
6385.98,0.09303
6362.84,0.10010
6339.7,0.09930
6316.55,0.09429
6293.41,0.09542
6270.26,0.09534
6247.12,0.09527
6223.97,0.09571
6200.83,0.09489
6177.68,0.10063
6154.54,0.09697
6131.39,0.09636
6108.25,0.09643
6085.1,0.09731
6061.96,0.09810
6038.82,0.09902
6015.67,0.09696
5992.53,0.09737
5969.38,0.09495
5946.24,0.09800
5923.09,0.09710
5899.95,0.09791
5876.8,0.09184
5853.66,0.09430
5830.51,0.08962
5807.37,0.08919
5784.22,0.08484
5761.08,0.08954
5737.94,0.09389
5714.79,0.09333
5691.65,0.09399
5668.5,0.09007
5645.36,0.09443
5622.21,0.09415
5599.07,0.09449
5575.92,0.09613
5552.78,0.09721
5529.63,0.09743
5506.49,0.09637
5483.34,0.09402
5460.2,0.09648
5437.06,0.09723
5413.91,0.09670
5390.77,0.09456
5367.62,0.09653
5344.48,0.09691
5321.33,0.09792
5298.19,0.09794
5275.04,0.09826
5251.9,0.09628
5228.75,0.09695
5205.61,0.09642
5182.46,0.09621
5159.32,0.09928
5136.18,0.09949
5113.03,0.09684
5089.89,0.09697
5066.74,0.09810
5043.6,0.09822
5020.45,0.09944
4997.31,0.09909
4974.16,0.09808
4951.02,0.09888
4927.87,0.09708
4904.73,0.09933
4881.58,0.09798
4858.44,0.09798
4835.3,0.09967
4812.15,0.09857
4789.01,0.09933
4765.86,0.09939
4742.72,0.10041
4719.57,0.10095
4696.43,0.10053
4673.28,0.09925
4650.14,0.09951
4626.99,0.10030
4603.85,0.10005
4580.7,0.09974
4557.56,0.09999
4534.42,0.09992
4511.27,0.09901
4488.13,0.09898
4464.98,0.09810
4441.84,0.09712
4418.69,0.09728
4395.55,0.09288
4372.4,0.08830
4349.26,0.08096
4326.11,0.06636
4302.97,0.08392
4279.82,0.08363
4256.68,0.07184
4233.54,0.08093
4210.39,0.07816
4187.25,0.07530
4164.1,0.07622
4140.96,0.07627
4117.81,0.07722
4094.67,0.07827
4071.52,0.08198
4048.38,0.08454
4025.23,0.08695
4002.09,0.08832
3978.94,0.08914
3955.8,0.09045
3932.66,0.08811
3909.51,0.08955
3886.37,0.09008
3863.22,0.08847
3840.08,0.09018
3816.93,0.09197
3793.79,0.09048
3770.64,0.09305
3747.5,0.09381
3724.35,0.09196
3701.21,0.09247
3678.06,0.09305
3654.92,0.08813
3631.78,0.09133
3608.63,0.08660
3585.49,0.09219
3562.34,0.09573
3539.2,0.09607
3516.05,0.09371
3492.91,0.09766
3469.76,0.09621
3446.62,0.09176
3423.47,0.09400
3400.33,0.09328
3377.18,0.08937
3354.04,0.09326
3330.9,0.09465
3307.75,0.09103
3284.61,0.09367
3261.46,0.09513
3238.32,0.09129
3215.17,0.09045
3192.03,0.09164
3168.88,0.09093
3145.74,0.08575
3122.59,0.08432
3099.45,0.08116
3076.3,0.07433
3053.16,0.06874
3030.02,0.06247
3006.87,0.05740
2983.73,0.05068
2960.58,0.04704
2937.44,0.03891
2914.29,0.08767
2891.15,0.06782
2868,0.05865
2844.86,0.08398
2821.71,0.06803
2798.57,0.06620
2775.42,0.07123
2752.28,0.07421
2729.14,0.07365
2705.99,0.07347
2682.85,0.07170
2659.7,0.07311
2636.56,0.07447
2613.41,0.07568
2590.27,0.08085
2567.12,0.09028
2543.98,0.08983
2520.83,0.08775
2497.69,0.09706
2474.55,0.09649
2451.4,0.09311
2428.26,0.09765
2405.11,0.09853
2381.97,0.09184
2358.82,0.09424
2335.68,0.09210
2312.53,0.08819
2289.39,0.09573
2266.24,0.09873
2243.1,0.09250
2219.95,0.09961
2196.81,0.09959
2173.67,0.09371
2150.52,0.09889
2127.38,0.10027
2104.23,0.09524
2081.09,0.10142
2057.94,0.09732
2034.8,0.09193
2011.65,0.09794
1988.51,0.09737
1965.36,0.09689
1942.22,0.10210
1919.07,0.09420
1895.93,0.09495
1872.79,0.10179
1849.64,0.09469
1826.5,0.10050
1803.35,0.09998
1780.21,0.09200
1757.06,0.09751
1733.92,0.09302
1710.77,0.08717
1687.63,0.10126
1664.48,0.09307
1641.34,0.08682
1618.19,0.09968
1595.05,0.08932
1571.91,0.08452
1548.76,0.09658
1525.62,0.08642
1502.47,0.07200
1479.33,0.05695
1456.18,0.06028
1433.04,0.06495
1409.89,0.07654
1386.75,0.07260
1363.6,0.07224
1340.46,0.06945
1317.31,0.07091
1294.17,0.08482
1271.03,0.07331
1247.88,0.08171
1224.74,0.10063
1201.59,0.07923
1178.45,0.08284
1155.3,0.10033
1132.16,0.07832
1109.01,0.08762
1085.87,0.10067
1062.72,0.07803
1039.58,0.09400
1016.43,0.10457
993.29,0.07810
970.145,0.09852
947,0.10843
923.856,0.07346
900.711,0.10225
877.567,0.10856
854.422,0.06879
831.277,0.10538
808.133,0.10723
784.988,0.05999
761.844,0.08986
738.699,0.08308
715.554,0.06843
692.41,0.11835
669.265,0.06518
646.12,0.08975
622.976,0.14036
599.831,0.06786