File: 01_Data/PEVA/FTIR/IS/PEVA_0.26_IS_S_240809_R4.dpt
7497.2,0.10839
7474.05,0.10054
7450.91,0.09305
7427.76,0.09581
7404.62,0.09818
7381.47,0.11213
7358.33,0.10470
7335.18,0.11007
7312.04,0.10624
7288.89,0.11354
7265.75,0.10263
7242.6,0.09650
7219.45,0.10084
7196.31,0.09982
7173.16,0.09577
7150.02,0.10691
7126.87,0.10407
7103.73,0.10209
7080.58,0.10297
7057.44,0.10688
7034.29,0.10782
7011.15,0.09744
6988,0.10715
6964.85,0.09788
6941.71,0.09282
6918.56,0.09994
6895.42,0.10709
6872.27,0.10046
6849.13,0.10819
6825.98,0.09903
6802.84,0.10574
6779.69,0.10621
6756.55,0.10211
6733.4,0.10557
6710.25,0.10159
6687.11,0.10311
6663.96,0.10463
6640.82,0.09852
6617.67,0.10282
6594.53,0.10308
6571.38,0.10401
6548.24,0.10117
6525.09,0.09742
6501.95,0.10680
6478.8,0.10506
6455.65,0.10190
6432.51,0.10084
6409.36,0.09961
6386.22,0.10250
6363.07,0.10175
6339.93,0.10344
6316.78,0.10229
6293.64,0.09985
6270.49,0.10072
6247.34,0.09995
6224.2,0.09964
6201.05,0.10107
6177.91,0.10029
6154.76,0.10359
6131.62,0.10270
6108.47,0.10336
6085.33,0.10196
6062.18,0.10260
6039.04,0.09987
6015.89,0.09899
5992.74,0.10157
5969.6,0.10062
5946.45,0.09636
5923.31,0.09782
5900.16,0.09794
5877.02,0.08898
5853.87,0.08930
5830.73,0.08673
5807.58,0.08996
5784.44,0.09148
5761.29,0.09329
5738.14,0.09442
5715,0.09245
5691.85,0.09488
5668.71,0.09733
5645.56,0.09647
5622.42,0.09908
5599.27,0.09789
5576.13,0.09844
5552.98,0.09752
5529.84,0.09869
5506.69,0.09953
5483.54,0.10060
5460.4,0.10087
5437.25,0.09962
5414.11,0.09894
5390.96,0.10031
5367.82,0.10087
5344.67,0.09994
5321.53,0.10161
5298.38,0.10297
5275.24,0.10135
5252.09,0.10311
5228.94,0.10151
5205.8,0.10138
5182.65,0.10211
5159.51,0.10185
5136.36,0.10285
5113.22,0.10119
5090.07,0.10320
5066.93,0.10142
5043.78,0.10231
5020.64,0.10194
4997.49,0.10273
4974.34,0.10318
4951.2,0.10312
4928.05,0.10340
4904.91,0.10154
4881.76,0.10378
4858.62,0.10364
4835.47,0.10360
4812.33,0.10187
4789.18,0.10318
4766.04,0.10291
4742.89,0.10365
4719.74,0.10307
4696.6,0.10168
4673.45,0.10053
4650.31,0.10079
4627.16,0.10008
4604.02,0.10247
4580.87,0.10163
4557.73,0.10219
4534.58,0.10209
4511.44,0.10070
4488.29,0.10009
4465.14,0.09863
4442,0.09353
4418.85,0.08619
4395.71,0.08145
4372.56,0.07672
4349.42,0.07089
4326.27,0.06958
4303.13,0.07292
4279.98,0.07237
4256.84,0.07415
4233.69,0.07433
4210.54,0.07314
4187.4,0.07494
4164.25,0.07432
4141.11,0.07821
4117.96,0.07990
4094.82,0.07805
4071.67,0.07656
4048.53,0.08195
4025.38,0.08249
4002.24,0.08430
3979.09,0.08684
3955.94,0.08789
3932.8,0.08833
3909.65,0.08830
3886.51,0.08906
3863.36,0.08991
3840.22,0.08945
3817.07,0.09032
3793.93,0.09160
3770.78,0.09292
3747.64,0.09213
3724.49,0.09304
3701.34,0.09127
3678.2,0.08613
3655.05,0.08671
3631.91,0.08663
3608.76,0.08427
3585.62,0.08168
3562.47,0.07816
3539.33,0.07713
3516.18,0.07593
3493.04,0.07323
3469.89,0.07082
3446.74,0.06797
3423.6,0.06437
3400.45,0.06888
3377.31,0.07131
3354.16,0.07391
3331.02,0.07212
3307.87,0.06602
3284.73,0.07015
3261.58,0.07622
3238.44,0.07682
3215.29,0.07600
3192.14,0.07528
3169,0.07517
3145.85,0.07381
3122.71,0.07248
3099.56,0.06814
3076.42,0.06534
3053.27,0.06306
3030.13,0.06109
3006.98,0.05853
2983.84,0.05676
2960.69,0.05860
2937.54,0.05931
2914.4,0.06261
2891.25,0.06278
2868.11,0.06246
2844.96,0.06393
2821.82,0.06287
2798.67,0.06504
2775.53,0.06830
2752.38,0.06844
2729.24,0.06722
2706.09,0.07165
2682.94,0.07271
2659.8,0.07352
2636.65,0.07442
2613.51,0.07345
2590.36,0.07332
2567.22,0.07427
2544.07,0.07533
2520.93,0.07640
2497.78,0.07893
2474.64,0.07987
2451.49,0.08071
2428.34,0.07919
2405.2,0.07622
2382.05,0.07446
2358.91,0.07708
2335.76,0.08131
2312.62,0.08276
2289.47,0.08089
2266.33,0.08046
2243.18,0.08084
2220.04,0.08109
2196.89,0.08407
2173.74,0.08539
2150.6,0.08480
2127.45,0.08381
2104.31,0.08299
2081.16,0.08204
2058.02,0.08254
2034.87,0.08384
2011.73,0.08476
1988.58,0.08194
1965.44,0.07816
1942.29,0.07347
1919.14,0.07993
1896,0.08081
1872.85,0.08107
1849.71,0.07649
1826.56,0.06664
1803.42,0.06673
1780.27,0.06121
1757.13,0.05516
1733.98,0.04979
1710.84,0.07030
1687.69,0.06148
1664.54,0.06169
1641.4,0.06065
1618.25,0.06366
1595.11,0.06445
1571.96,0.05867
1548.82,0.06052
1525.67,0.05990
1502.53,0.05672
1479.38,0.05473
1456.24,0.05718
1433.09,0.05562
1409.94,0.05628
1386.8,0.05476
1363.65,0.05527
1340.51,0.05295
1317.36,0.05306
1294.22,0.04821
1271.07,0.06652
1247.93,0.07326
1224.78,0.06850
1201.64,0.06360
1178.49,0.06094
1155.34,0.05893
1132.2,0.05415
1109.05,0.06545
1085.91,0.06757
1062.76,0.06557
1039.62,0.06234
1016.47,0.06556
993.326,0.06124
970.18,0.06111
947.035,0.06433
923.89,0.06351
900.744,0.06272
877.599,0.06195
854.453,0.06279
831.308,0.06156
808.162,0.06297
785.017,0.06086
761.871,0.06102
738.726,0.05247
715.58,0.06159
692.435,0.06033
669.29,0.06007
646.144,0.05717
622.999,0.06025
599.853,0.06533