File: 01_Data/PEVA/FTIR/IS/PEVA_0.10_IS_S_240808_R9.dpt
7496.93,0.08333
7473.78,0.10455
7450.64,0.09116
7427.49,0.09401
7404.35,0.09676
7381.2,0.07858
7358.06,0.09449
7334.91,0.09370
7311.77,0.10156
7288.62,0.09624
7265.48,0.10195
7242.34,0.10473
7219.19,0.09737
7196.05,0.09441
7172.9,0.09769
7149.76,0.10825
7126.61,0.09302
7103.47,0.09163
7080.32,0.09681
7057.18,0.09856
7034.03,0.08995
7010.89,0.10375
6987.74,0.10201
6964.6,0.09257
6941.46,0.09190
6918.31,0.09224
6895.17,0.09307
6872.02,0.08999
6848.88,0.09365
6825.73,0.09494
6802.59,0.09228
6779.44,0.10121
6756.3,0.09840
6733.15,0.09484
6710.01,0.09610
6686.86,0.09473
6663.72,0.09795
6640.58,0.09809
6617.43,0.09645
6594.29,0.10213
6571.14,0.09452
6548,0.09879
6524.85,0.10236
6501.71,0.10220
6478.56,0.10245
6455.42,0.09727
6432.27,0.09817
6409.13,0.09686
6385.98,0.10328
6362.84,0.09458
6339.7,0.10265
6316.55,0.10424
6293.41,0.09856
6270.26,0.09483
6247.12,0.09594
6223.97,0.09329
6200.83,0.10006
6177.68,0.09470
6154.54,0.09744
6131.39,0.09603
6108.25,0.09662
6085.1,0.10054
6061.96,0.10191
6038.82,0.09648
6015.67,0.09522
5992.53,0.09572
5969.38,0.09881
5946.24,0.09827
5923.09,0.09830
5899.95,0.09952
5876.8,0.09423
5853.66,0.09310
5830.51,0.09053
5807.37,0.09342
5784.22,0.08702
5761.08,0.08829
5737.94,0.09375
5714.79,0.09314
5691.65,0.09238
5668.5,0.09141
5645.36,0.09252
5622.21,0.09588
5599.07,0.09641
5575.92,0.09733
5552.78,0.09507
5529.63,0.09687
5506.49,0.09624
5483.34,0.09522
5460.2,0.09676
5437.06,0.09595
5413.91,0.09606
5390.77,0.09717
5367.62,0.09825
5344.48,0.09856
5321.33,0.09734
5298.19,0.09870
5275.04,0.09878
5251.9,0.09896
5228.75,0.09797
5205.61,0.09846
5182.46,0.10042
5159.32,0.09950
5136.18,0.09840
5113.03,0.09946
5089.89,0.09989
5066.74,0.09929
5043.6,0.10031
5020.45,0.09839
4997.31,0.09691
4974.16,0.09872
4951.02,0.09968
4927.87,0.09948
4904.73,0.10132
4881.58,0.09801
4858.44,0.10018
4835.3,0.10085
4812.15,0.10099
4789.01,0.10150
4765.86,0.10259
4742.72,0.10080
4719.57,0.10058
4696.43,0.10171
4673.28,0.10143
4650.14,0.10159
4626.99,0.10104
4603.85,0.10188
4580.7,0.10026
4557.56,0.10239
4534.42,0.10088
4511.27,0.10088
4488.13,0.10061
4464.98,0.09987
4441.84,0.09859
4418.69,0.09731
4395.55,0.09326
4372.4,0.08973
4349.26,0.08185
4326.11,0.06665
4302.97,0.08479
4279.82,0.08463
4256.68,0.07289
4233.54,0.08113
4210.39,0.07913
4187.25,0.07659
4164.1,0.07724
4140.96,0.07755
4117.81,0.07830
4094.67,0.07908
4071.52,0.08385
4048.38,0.08605
4025.23,0.08678
4002.09,0.09023
3978.94,0.09028
3955.8,0.09121
3932.66,0.09111
3909.51,0.09026
3886.37,0.09051
3863.22,0.09064
3840.08,0.09237
3816.93,0.09258
3793.79,0.09364
3770.64,0.09357
3747.5,0.09372
3724.35,0.09468
3701.21,0.09395
3678.06,0.09315
3654.92,0.09119
3631.78,0.09074
3608.63,0.08619
3585.49,0.09536
3562.34,0.09587
3539.2,0.09639
3516.05,0.09770
3492.91,0.09744
3469.76,0.09650
3446.62,0.09619
3423.47,0.09435
3400.33,0.09402
3377.18,0.09433
3354.04,0.09362
3330.9,0.09409
3307.75,0.09525
3284.61,0.09469
3261.46,0.09441
3238.32,0.09450
3215.17,0.09382
3192.03,0.09128
3168.88,0.09039
3145.74,0.08953
3122.59,0.08716
3099.45,0.08099
3076.3,0.07277
3053.16,0.06817
3030.02,0.06242
3006.87,0.05786
2983.73,0.05228
2960.58,0.04797
2937.44,0.03911
2914.29,0.09012
2891.15,0.06940
2868,0.05958
2844.86,0.08628
2821.71,0.06967
2798.57,0.06785
2775.42,0.07181
2752.28,0.07414
2729.14,0.07477
2705.99,0.07679
2682.85,0.07543
2659.7,0.07331
2636.56,0.07397
2613.41,0.07953
2590.27,0.08327
2567.12,0.08775
2543.98,0.09231
2520.83,0.09341
2497.69,0.09482
2474.55,0.09720
2451.4,0.10054
2428.26,0.09681
2405.11,0.09763
2381.97,0.09890
2358.82,0.09347
2335.68,0.09041
2312.53,0.09545
2289.39,0.09439
2266.24,0.09776
2243.1,0.10056
2219.95,0.09798
2196.81,0.09934
2173.67,0.10176
2150.52,0.09628
2127.38,0.10059
2104.23,0.10306
2081.09,0.09831
2057.94,0.09942
2034.8,0.09861
2011.65,0.09379
1988.51,0.10096
1965.36,0.10292
1942.22,0.09749
1919.07,0.09975
1895.93,0.09852
1872.79,0.09795
1849.64,0.10188
1826.5,0.10234
1803.35,0.09698
1780.21,0.09898
1757.06,0.09929
1733.92,0.09176
1710.77,0.09439
1687.63,0.10062
1664.48,0.09318
1641.34,0.09359
1618.19,0.09869
1595.05,0.09002
1571.91,0.09038
1548.76,0.09643
1525.62,0.08667
1502.47,0.07524
1479.33,0.05805
1456.18,0.06168
1433.04,0.06553
1409.89,0.07888
1386.75,0.07632
1363.6,0.07320
1340.46,0.07097
1317.31,0.07452
1294.17,0.08503
1271.03,0.07473
1247.88,0.08563
1224.74,0.10069
1201.59,0.07973
1178.45,0.08795
1155.3,0.10070
1132.16,0.07830
1109.01,0.09313
1085.87,0.10054
1062.72,0.07827
1039.58,0.09982
1016.43,0.10435
993.29,0.08109
970.145,0.10351
947,0.10555
923.856,0.07612
900.711,0.10668
877.567,0.10549
854.422,0.07367
831.277,0.10812
808.133,0.10367
784.988,0.06515
761.844,0.09304
738.699,0.08169
715.554,0.06881
692.41,0.11617
669.265,0.06923
646.12,0.09453
622.976,0.13850
599.831,0.07099