File: 01_Data/PEVA/FTIR/IS/PEVA_0.10_IS_T_240808_R13.dpt
7496.93,0.03532
7473.78,0.03431
7450.64,0.03765
7427.49,0.02825
7404.35,0.04609
7381.2,0.02671
7358.06,0.03066
7334.91,0.04029
7311.77,0.03784
7288.62,0.01956
7265.48,0.03789
7242.34,0.04408
7219.19,0.02815
7196.05,0.03991
7172.9,0.03832
7149.76,0.03778
7126.61,0.03126
7103.47,0.05141
7080.32,0.03663
7057.18,0.03701
7034.03,0.03616
7010.89,0.04121
6987.74,0.03114
6964.6,0.03193
6941.46,0.02923
6918.31,0.03046
6895.17,0.02958
6872.02,0.02997
6848.88,0.03356
6825.73,0.03014
6802.59,0.03663
6779.44,0.03719
6756.3,0.03026
6733.15,0.02841
6710.01,0.03016
6686.86,0.02970
6663.72,0.03259
6640.58,0.02837
6617.43,0.03031
6594.29,0.02909
6571.14,0.03299
6548,0.03253
6524.85,0.02784
6501.71,0.02677
6478.56,0.03108
6455.42,0.02890
6432.27,0.03432
6409.13,0.02618
6385.98,0.03173
6362.84,0.03056
6339.7,0.02689
6316.55,0.02940
6293.41,0.02999
6270.26,0.03181
6247.12,0.03184
6223.97,0.02715
6200.83,0.02923
6177.68,0.03234
6154.54,0.03317
6131.39,0.03261
6108.25,0.02929
6085.1,0.03100
6061.96,0.03069
6038.82,0.02812
6015.67,0.02969
5992.53,0.02825
5969.38,0.02879
5946.24,0.02918
5923.09,0.02803
5899.95,0.03118
5876.8,0.02863
5853.66,0.02711
5830.51,0.02819
5807.37,0.02845
5784.22,0.03122
5761.08,0.02982
5737.94,0.02911
5714.79,0.03002
5691.65,0.03098
5668.5,0.03225
5645.36,0.03004
5622.21,0.02774
5599.07,0.02940
5575.92,0.03131
5552.78,0.03047
5529.63,0.03140
5506.49,0.03150
5483.34,0.03196
5460.2,0.03132
5437.06,0.02789
5413.91,0.02923
5390.77,0.03037
5367.62,0.02959
5344.48,0.02839
5321.33,0.03060
5298.19,0.02927
5275.04,0.02937
5251.9,0.02985
5228.75,0.02926
5205.61,0.02973
5182.46,0.02921
5159.32,0.03093
5136.18,0.03126
5113.03,0.02956
5089.89,0.02957
5066.74,0.02942
5043.6,0.03001
5020.45,0.02948
4997.31,0.02899
4974.16,0.03059
4951.02,0.03011
4927.87,0.02929
4904.73,0.02947
4881.58,0.03040
4858.44,0.03010
4835.3,0.02871
4812.15,0.02827
4789.01,0.03009
4765.86,0.02986
4742.72,0.03053
4719.57,0.03032
4696.43,0.02944
4673.28,0.02929
4650.14,0.03070
4626.99,0.02900
4603.85,0.02970
4580.7,0.02991
4557.56,0.03011
4534.42,0.02921
4511.27,0.02964
4488.13,0.03006
4464.98,0.02968
4441.84,0.02900
4418.69,0.02972
4395.55,0.02987
4372.4,0.03042
4349.26,0.02990
4326.11,0.02972
4302.97,0.02913
4279.82,0.02979
4256.68,0.03065
4233.54,0.02927
4210.39,0.03051
4187.25,0.02943
4164.1,0.02886
4140.96,0.03019
4117.81,0.03085
4094.67,0.02960
4071.52,0.02945
4048.38,0.02939
4025.23,0.02942
4002.09,0.02878
3978.94,0.02943
3955.8,0.02922
3932.66,0.02946
3909.51,0.02945
3886.37,0.02943
3863.22,0.03071
3840.08,0.03032
3816.93,0.03005
3793.79,0.02934
3770.64,0.03005
3747.5,0.02991
3724.35,0.02905
3701.21,0.02980
3678.06,0.02885
3654.92,0.02855
3631.78,0.02882
3608.63,0.02741
3585.49,0.02676
3562.34,0.02734
3539.2,0.02679
3516.05,0.02652
3492.91,0.02642
3469.76,0.02599
3446.62,0.02703
3423.47,0.02569
3400.33,0.02608
3377.18,0.02582
3354.04,0.02664
3330.9,0.02586
3307.75,0.02578
3284.61,0.02577
3261.46,0.02602
3238.32,0.02621
3215.17,0.02656
3192.03,0.02647
3168.88,0.02624
3145.74,0.02666
3122.59,0.02704
3099.45,0.02721
3076.3,0.02631
3053.16,0.02704
3030.02,0.02649
3006.87,0.02615
2983.73,0.02586
2960.58,0.02543
2937.44,0.02551
2914.29,0.02592
2891.15,0.02654
2868,0.02617
2844.86,0.02716
2821.71,0.02730
2798.57,0.02688
2775.42,0.02679
2752.28,0.02721
2729.14,0.02694
2705.99,0.02697
2682.85,0.02720
2659.7,0.02689
2636.56,0.02703
2613.41,0.02705
2590.27,0.02707
2567.12,0.02706
2543.98,0.02690
2520.83,0.02679
2497.69,0.02698
2474.55,0.02676
2451.4,0.02686
2428.26,0.02698
2405.11,0.02659
2381.97,0.02695
2358.82,0.02756
2335.68,0.02682
2312.53,0.02657
2289.39,0.02598
2266.24,0.02608
2243.1,0.02603
2219.95,0.02636
2196.81,0.02595
2173.67,0.02608
2150.52,0.02594
2127.38,0.02543
2104.23,0.02563
2081.09,0.02591
2057.94,0.02572
2034.8,0.02545
2011.65,0.02542
1988.51,0.02534
1965.36,0.02497
1942.22,0.02546
1919.07,0.02533
1895.93,0.02500
1872.79,0.02518
1849.64,0.02434
1826.5,0.02491
1803.35,0.02414
1780.21,0.02317
1757.06,0.02166
1733.92,0.02278
1710.77,0.02455
1687.63,0.02289
1664.48,0.02172
1641.34,0.02166
1618.19,0.02216
1595.05,0.02234
1571.91,0.02149
1548.76,0.02156
1525.62,0.02287
1502.47,0.02169
1479.33,0.02188
1456.18,0.02137
1433.04,0.02118
1409.89,0.02075
1386.75,0.02071
1363.6,0.02053
1340.46,0.02051
1317.31,0.01937
1294.17,0.02031
1271.03,0.02160
1247.88,0.02266
1224.74,0.02203
1201.59,0.02110
1178.45,0.02061
1155.3,0.02046
1132.16,0.02102
1109.01,0.02189
1085.87,0.02148
1062.72,0.02345
1039.58,0.02300
1016.43,0.02232
993.29,0.02359
970.145,0.02307
947,0.02288
923.856,0.02214
900.711,0.02243
877.567,0.02186
854.422,0.02209
831.277,0.02136
808.133,0.02046
784.988,0.02052
761.844,0.02002
738.699,0.01993
715.554,0.01911
692.41,0.01951
669.265,0.01839
646.12,0.01862
622.976,0.01817
599.831,0.01917