File: 01_Data/PEVA/FTIR/IS/PEVA_0.18_IS_S_240809_R2.dpt
7497.33,0.11241
7474.19,0.10022
7451.04,0.09633
7427.9,0.09062
7404.75,0.09840
7381.6,0.09981
7358.46,0.09190
7335.31,0.11222
7312.17,0.10721
7289.02,0.09728
7265.87,0.10194
7242.73,0.09325
7219.58,0.10348
7196.44,0.08985
7173.29,0.08868
7150.15,0.10607
7127,0.10035
7103.85,0.09799
7080.71,0.09947
7057.56,0.09824
7034.42,0.09659
7011.27,0.10108
6988.12,0.10652
6964.98,0.09846
6941.83,0.10043
6918.69,0.09845
6895.54,0.09906
6872.39,0.09623
6849.25,0.10504
6826.1,0.10221
6802.96,0.10191
6779.81,0.09605
6756.67,0.10146
6733.52,0.10025
6710.37,0.09784
6687.23,0.10149
6664.08,0.10326
6640.94,0.09970
6617.79,0.10004
6594.64,0.10351
6571.5,0.10450
6548.35,0.09647
6525.21,0.10145
6502.06,0.10266
6478.92,0.09638
6455.77,0.09779
6432.62,0.09923
6409.48,0.09841
6386.33,0.10276
6363.19,0.10274
6340.04,0.09471
6316.89,0.10384
6293.75,0.10256
6270.6,0.10307
6247.46,0.10257
6224.31,0.09941
6201.16,0.10226
6178.02,0.09949
6154.87,0.09909
6131.73,0.10021
6108.58,0.10217
6085.44,0.09892
6062.29,0.09801
6039.14,0.09887
6016,0.09859
5992.85,0.10062
5969.71,0.09680
5946.56,0.10044
5923.41,0.09999
5900.27,0.09997
5877.12,0.09716
5853.98,0.09316
5830.83,0.09041
5807.68,0.08778
5784.54,0.08475
5761.39,0.08639
5738.25,0.09141
5715.1,0.09291
5691.96,0.09528
5668.81,0.08939
5645.66,0.09254
5622.52,0.09631
5599.37,0.09431
5576.23,0.09740
5553.08,0.09620
5529.93,0.09607
5506.79,0.09587
5483.64,0.09543
5460.5,0.09698
5437.35,0.09671
5414.21,0.09937
5391.06,0.09847
5367.91,0.09668
5344.77,0.09917
5321.62,0.09871
5298.48,0.09846
5275.33,0.09671
5252.18,0.09913
5229.04,0.09884
5205.89,0.10018
5182.75,0.09988
5159.6,0.09920
5136.45,0.09958
5113.31,0.09904
5090.16,0.09940
5067.02,0.09889
5043.87,0.09834
5020.73,0.09860
4997.58,0.09878
4974.43,0.09916
4951.29,0.09873
4928.14,0.09843
4905,0.09938
4881.85,0.10036
4858.7,0.10104
4835.56,0.10067
4812.41,0.10156
4789.27,0.10072
4766.12,0.10104
4742.97,0.10059
4719.83,0.10107
4696.68,0.10124
4673.54,0.09972
4650.39,0.09985
4627.25,0.09917
4604.1,0.10041
4580.95,0.10044
4557.81,0.10090
4534.66,0.10106
4511.52,0.10028
4488.37,0.09976
4465.22,0.09704
4442.08,0.09410
4418.93,0.09152
4395.79,0.08690
4372.64,0.08124
4349.49,0.07162
4326.35,0.06355
4303.2,0.07667
4280.06,0.07664
4256.91,0.06748
4233.77,0.07380
4210.62,0.07233
4187.47,0.06918
4164.33,0.07047
4141.18,0.07113
4118.04,0.07163
4094.89,0.07288
4071.74,0.07722
4048.6,0.07901
4025.45,0.08024
4002.31,0.08430
3979.16,0.08260
3956.02,0.08447
3932.87,0.08338
3909.72,0.08381
3886.58,0.08518
3863.43,0.08610
3840.29,0.08706
3817.14,0.08718
3793.99,0.08913
3770.85,0.09055
3747.7,0.09050
3724.56,0.08924
3701.41,0.08731
3678.26,0.08677
3655.12,0.08436
3631.97,0.08462
3608.83,0.08110
3585.68,0.08955
3562.54,0.09165
3539.39,0.09168
3516.24,0.09210
3493.1,0.09160
3469.95,0.08347
3446.81,0.08046
3423.66,0.08863
3400.51,0.08986
3377.37,0.08873
3354.22,0.08985
3331.08,0.08978
3307.93,0.08914
3284.78,0.08886
3261.64,0.08842
3238.49,0.08748
3215.35,0.08717
3192.2,0.08581
3169.06,0.08474
3145.91,0.08270
3122.76,0.07942
3099.62,0.07235
3076.47,0.06482
3053.33,0.06036
3030.18,0.05605
3007.03,0.05452
2983.89,0.05151
2960.74,0.04741
2937.6,0.03960
2914.45,0.08699
2891.31,0.06819
2868.16,0.05959
2845.01,0.08348
2821.87,0.06751
2798.72,0.06791
2775.58,0.06791
2752.43,0.06686
2729.28,0.06626
2706.14,0.06681
2682.99,0.06654
2659.85,0.06746
2636.7,0.06893
2613.55,0.07266
2590.41,0.07651
2567.26,0.08060
2544.12,0.08236
2520.97,0.08328
2497.83,0.08581
2474.68,0.08577
2451.53,0.09126
2428.39,0.09222
2405.24,0.09141
2382.1,0.09020
2358.95,0.08687
2335.8,0.08223
2312.66,0.08244
2289.51,0.08449
2266.37,0.08717
2243.22,0.08908
2220.07,0.09268
2196.93,0.09345
2173.78,0.09209
2150.64,0.09143
2127.49,0.09439
2104.35,0.09296
2081.2,0.09058
2058.05,0.08766
2034.91,0.08475
2011.76,0.08573
1988.62,0.09186
1965.47,0.09342
1942.32,0.09302
1919.18,0.09030
1896.03,0.08489
1872.89,0.08389
1849.74,0.08349
1826.6,0.07954
1803.45,0.07346
1780.3,0.06767
1757.16,0.06389
1734.01,0.05880
1710.87,0.05884
1687.72,0.06311
1664.57,0.07102
1641.43,0.07187
1618.28,0.07732
1595.14,0.07767
1571.99,0.07628
1548.84,0.07555
1525.7,0.07320
1502.55,0.06871
1479.41,0.05509
1456.26,0.06280
1433.12,0.05983
1409.97,0.06113
1386.82,0.05415
1363.68,0.05770
1340.53,0.05980
1317.39,0.06143
1294.24,0.06271
1271.09,0.06663
1247.95,0.06242
1224.8,0.05188
1201.66,0.05780
1178.51,0.06030
1155.36,0.05907
1132.22,0.05907
1109.07,0.06136
1085.93,0.06222
1062.78,0.06301
1039.64,0.06369
1016.49,0.06260
993.344,0.06246
970.198,0.06042
947.052,0.05891
923.906,0.06569
900.76,0.07374
877.614,0.07513
854.468,0.07336
831.323,0.07457
808.177,0.07189
785.031,0.07780
761.885,0.07954
738.739,0.05867
715.593,0.06220
692.447,0.09538
669.301,0.09239
646.156,0.06579
623.01,0.06187
599.864,0.05913