File: 01_Data/PEVA/FTIR/IS/PEVA_0.10_IS_S_240808_R4.dpt
7496.93,0.08755
7473.78,0.09693
7450.64,0.10061
7427.49,0.10631
7404.35,0.10069
7381.2,0.08846
7358.06,0.09655
7334.91,0.09996
7311.77,0.08675
7288.62,0.09233
7265.48,0.09294
7242.34,0.09850
7219.19,0.08265
7196.05,0.09171
7172.9,0.10778
7149.76,0.08535
7126.61,0.09818
7103.47,0.08889
7080.32,0.09641
7057.18,0.09862
7034.03,0.09203
7010.89,0.09569
6987.74,0.10116
6964.6,0.09726
6941.46,0.09542
6918.31,0.09976
6895.17,0.09785
6872.02,0.09551
6848.88,0.09540
6825.73,0.09600
6802.59,0.09447
6779.44,0.09383
6756.3,0.10263
6733.15,0.09494
6710.01,0.09837
6686.86,0.09569
6663.72,0.10265
6640.58,0.10074
6617.43,0.09224
6594.29,0.09644
6571.14,0.09703
6548,0.09715
6524.85,0.09794
6501.71,0.10106
6478.56,0.09447
6455.42,0.10001
6432.27,0.09662
6409.13,0.09878
6385.98,0.09914
6362.84,0.09979
6339.7,0.10190
6316.55,0.09808
6293.41,0.09981
6270.26,0.09771
6247.12,0.09594
6223.97,0.09842
6200.83,0.09456
6177.68,0.09294
6154.54,0.09613
6131.39,0.09600
6108.25,0.09938
6085.1,0.09406
6061.96,0.10068
6038.82,0.09586
6015.67,0.09853
5992.53,0.09789
5969.38,0.10002
5946.24,0.09467
5923.09,0.09561
5899.95,0.09743
5876.8,0.09387
5853.66,0.09375
5830.51,0.09213
5807.37,0.08613
5784.22,0.08786
5761.08,0.08939
5737.94,0.09087
5714.79,0.09549
5691.65,0.09416
5668.5,0.08872
5645.36,0.09350
5622.21,0.09238
5599.07,0.09378
5575.92,0.09542
5552.78,0.09492
5529.63,0.09547
5506.49,0.09492
5483.34,0.09685
5460.2,0.09558
5437.06,0.09512
5413.91,0.09695
5390.77,0.09553
5367.62,0.09911
5344.48,0.09943
5321.33,0.09587
5298.19,0.09793
5275.04,0.09707
5251.9,0.09711
5228.75,0.09732
5205.61,0.09757
5182.46,0.09678
5159.32,0.09819
5136.18,0.09768
5113.03,0.09759
5089.89,0.09854
5066.74,0.09756
5043.6,0.09823
5020.45,0.09855
4997.31,0.09710
4974.16,0.09809
4951.02,0.09747
4927.87,0.09716
4904.73,0.09982
4881.58,0.09856
4858.44,0.09783
4835.3,0.10043
4812.15,0.09892
4789.01,0.09869
4765.86,0.09936
4742.72,0.09989
4719.57,0.09935
4696.43,0.10001
4673.28,0.10080
4650.14,0.09832
4626.99,0.10157
4603.85,0.09970
4580.7,0.09823
4557.56,0.10082
4534.42,0.09881
4511.27,0.09881
4488.13,0.09985
4464.98,0.09835
4441.84,0.09679
4418.69,0.09740
4395.55,0.09237
4372.4,0.08782
4349.26,0.08128
4326.11,0.06634
4302.97,0.08436
4279.82,0.08379
4256.68,0.07144
4233.54,0.08112
4210.39,0.07899
4187.25,0.07413
4164.1,0.07693
4140.96,0.07723
4117.81,0.07701
4094.67,0.07771
4071.52,0.08316
4048.38,0.08371
4025.23,0.08672
4002.09,0.08890
3978.94,0.08832
3955.8,0.09067
3932.66,0.08877
3909.51,0.08835
3886.37,0.09026
3863.22,0.08892
3840.08,0.08978
3816.93,0.09144
3793.79,0.09133
3770.64,0.09225
3747.5,0.09290
3724.35,0.09114
3701.21,0.09287
3678.06,0.09234
3654.92,0.08975
3631.78,0.09039
3608.63,0.08545
3585.49,0.09189
3562.34,0.09529
3539.2,0.09613
3516.05,0.09452
3492.91,0.09587
3469.76,0.09527
3446.62,0.09214
3423.47,0.09404
3400.33,0.09310
3377.18,0.09077
3354.04,0.09383
3330.9,0.09272
3307.75,0.09158
3284.61,0.09407
3261.46,0.09398
3238.32,0.09169
3215.17,0.09221
3192.03,0.09170
3168.88,0.08953
3145.74,0.08600
3122.59,0.08506
3099.45,0.08055
3076.3,0.07345
3053.16,0.06720
3030.02,0.06135
3006.87,0.05714
2983.73,0.05149
2960.58,0.04676
2937.44,0.03856
2914.29,0.08773
2891.15,0.06822
2868,0.05851
2844.86,0.08375
2821.71,0.06784
2798.57,0.06660
2775.42,0.06960
2752.28,0.07288
2729.14,0.07223
2705.99,0.07404
2682.85,0.07388
2659.7,0.07341
2636.56,0.07287
2613.41,0.07664
2590.27,0.08244
2567.12,0.08809
2543.98,0.08888
2520.83,0.09120
2497.69,0.09596
2474.55,0.09486
2451.4,0.09578
2428.26,0.09778
2405.11,0.09557
2381.97,0.09399
2358.82,0.09425
2335.68,0.08895
2312.53,0.09038
2289.39,0.09634
2266.24,0.09578
2243.1,0.09499
2219.95,0.10046
2196.81,0.09719
2173.67,0.09605
2150.52,0.09939
2127.38,0.09713
2104.23,0.09758
2081.09,0.10203
2057.94,0.09459
2034.8,0.09402
2011.65,0.09814
1988.51,0.09466
1965.36,0.09920
1942.22,0.10182
1919.07,0.09265
1895.93,0.09725
1872.79,0.10172
1849.64,0.09305
1826.5,0.10236
1803.35,0.09916
1780.21,0.09032
1757.06,0.09981
1733.92,0.09265
1710.77,0.08668
1687.63,0.10349
1664.48,0.09161
1641.34,0.08568
1618.19,0.10145
1595.05,0.08844
1571.91,0.08369
1548.76,0.09850
1525.62,0.08604
1502.47,0.07039
1479.33,0.05648
1456.18,0.06057
1433.04,0.06418
1409.89,0.07505
1386.75,0.07242
1363.6,0.07305
1340.46,0.06824
1317.31,0.07148
1294.17,0.08476
1271.03,0.07265
1247.88,0.08247
1224.74,0.10066
1201.59,0.07778
1178.45,0.08513
1155.3,0.09987
1132.16,0.07751
1109.01,0.08931
1085.87,0.09965
1062.72,0.07807
1039.58,0.09497
1016.43,0.10316
993.29,0.07933
970.145,0.09935
947,0.10673
923.856,0.07412
900.711,0.10222
877.567,0.10698
854.422,0.07104
831.277,0.10376
808.133,0.10628
784.988,0.06260
761.844,0.08843
738.699,0.08112
715.554,0.06803
692.41,0.11637
669.265,0.06739
646.12,0.08862
622.976,0.13982
599.831,0.06988