File: 01_Data/PEVA/FTIR/IS/PEVA_0.18_IS_S_240809_R9.dpt
7497.33,0.10786
7474.19,0.09843
7451.04,0.10943
7427.9,0.10383
7404.75,0.09791
7381.6,0.10877
7358.46,0.10766
7335.31,0.09957
7312.17,0.09888
7289.02,0.10299
7265.87,0.10037
7242.73,0.10408
7219.58,0.09707
7196.44,0.10272
7173.29,0.10264
7150.15,0.10242
7127,0.10056
7103.85,0.10180
7080.71,0.11022
7057.56,0.08979
7034.42,0.09671
7011.27,0.10838
6988.12,0.10354
6964.98,0.10054
6941.83,0.09885
6918.69,0.09812
6895.54,0.09278
6872.39,0.10107
6849.25,0.10406
6826.1,0.10277
6802.96,0.10403
6779.81,0.09648
6756.67,0.10593
6733.52,0.10101
6710.37,0.10519
6687.23,0.10607
6664.08,0.09407
6640.94,0.10554
6617.79,0.10715
6594.64,0.10294
6571.5,0.10785
6548.35,0.10726
6525.21,0.09891
6502.06,0.09934
6478.92,0.10123
6455.77,0.10278
6432.62,0.10275
6409.48,0.10462
6386.33,0.10020
6363.19,0.10434
6340.04,0.10425
6316.89,0.10540
6293.75,0.10478
6270.6,0.10318
6247.46,0.10649
6224.31,0.10194
6201.16,0.10089
6178.02,0.10146
6154.87,0.10241
6131.73,0.10184
6108.58,0.09942
6085.44,0.10527
6062.29,0.10202
6039.14,0.10361
6016,0.10294
5992.85,0.10197
5969.71,0.10324
5946.56,0.09710
5923.41,0.09904
5900.27,0.10104
5877.12,0.09583
5853.98,0.09590
5830.83,0.09250
5807.68,0.08929
5784.54,0.08565
5761.39,0.09025
5738.25,0.09666
5715.1,0.09304
5691.96,0.09370
5668.81,0.09183
5645.66,0.09409
5622.52,0.09471
5599.37,0.09917
5576.23,0.09719
5553.08,0.09979
5529.93,0.09654
5506.79,0.09778
5483.64,0.09599
5460.5,0.10098
5437.35,0.09946
5414.21,0.10061
5391.06,0.09976
5367.91,0.09802
5344.77,0.10016
5321.62,0.09926
5298.48,0.09942
5275.33,0.09968
5252.18,0.09983
5229.04,0.10008
5205.89,0.10077
5182.75,0.10140
5159.6,0.10143
5136.45,0.10206
5113.31,0.10065
5090.16,0.10070
5067.02,0.10109
5043.87,0.10081
5020.73,0.10168
4997.58,0.10090
4974.43,0.10012
4951.29,0.10008
4928.14,0.10047
4905,0.10129
4881.85,0.10186
4858.7,0.10216
4835.56,0.10104
4812.41,0.10105
4789.27,0.10230
4766.12,0.10288
4742.97,0.10341
4719.83,0.10270
4696.68,0.10314
4673.54,0.10081
4650.39,0.10123
4627.25,0.10218
4604.1,0.10065
4580.95,0.10101
4557.81,0.10154
4534.66,0.10264
4511.52,0.10174
4488.37,0.10099
4465.22,0.10020
4442.08,0.09601
4418.93,0.09286
4395.79,0.08799
4372.64,0.08220
4349.49,0.07284
4326.35,0.06354
4303.2,0.07769
4280.06,0.07609
4256.91,0.06753
4233.77,0.07375
4210.62,0.07243
4187.47,0.07109
4164.33,0.07110
4141.18,0.07233
4118.04,0.07257
4094.89,0.07384
4071.74,0.07793
4048.6,0.07944
4025.45,0.08048
4002.31,0.08406
3979.16,0.08255
3956.02,0.08452
3932.87,0.08475
3909.72,0.08445
3886.58,0.08580
3863.43,0.08727
3840.29,0.08818
3817.14,0.08824
3793.99,0.09043
3770.85,0.09074
3747.7,0.09073
3724.56,0.08959
3701.41,0.08864
3678.26,0.08621
3655.12,0.08374
3631.97,0.08545
3608.83,0.08172
3585.68,0.08948
3562.54,0.09295
3539.39,0.09349
3516.24,0.09276
3493.1,0.09154
3469.95,0.08328
3446.81,0.08238
3423.66,0.08876
3400.51,0.08937
3377.37,0.08844
3354.22,0.09027
3331.08,0.08999
3307.93,0.08915
3284.78,0.08956
3261.64,0.08938
3238.49,0.08874
3215.35,0.08837
3192.2,0.08629
3169.06,0.08516
3145.91,0.08310
3122.76,0.07992
3099.62,0.07240
3076.47,0.06493
3053.33,0.06038
3030.18,0.05650
3007.03,0.05409
2983.89,0.05133
2960.74,0.04836
2937.6,0.04047
2914.45,0.08822
2891.31,0.06838
2868.16,0.05959
2845.01,0.08398
2821.87,0.06674
2798.72,0.06659
2775.58,0.06829
2752.43,0.06877
2729.28,0.06850
2706.14,0.06910
2682.99,0.06669
2659.85,0.06650
2636.7,0.06648
2613.55,0.07035
2590.41,0.07489
2567.26,0.08002
2544.12,0.08240
2520.97,0.08473
2497.83,0.08762
2474.68,0.08712
2451.53,0.09223
2428.39,0.09230
2405.24,0.09092
2382.1,0.08995
2358.95,0.08718
2335.8,0.08252
2312.66,0.08264
2289.51,0.08486
2266.37,0.08717
2243.22,0.08865
2220.07,0.09266
2196.93,0.09326
2173.78,0.09235
2150.64,0.09252
2127.49,0.09471
2104.35,0.09313
2081.2,0.09072
2058.05,0.08756
2034.91,0.08453
2011.76,0.08539
1988.62,0.09229
1965.47,0.09316
1942.32,0.09144
1919.18,0.08883
1896.03,0.08442
1872.89,0.08506
1849.74,0.08659
1826.6,0.08330
1803.45,0.07635
1780.3,0.06997
1757.16,0.06101
1734.01,0.05012
1710.87,0.05880
1687.72,0.06261
1664.57,0.07179
1641.43,0.07178
1618.28,0.07655
1595.14,0.07819
1571.99,0.07738
1548.84,0.07675
1525.7,0.07345
1502.55,0.06939
1479.41,0.05528
1456.26,0.06362
1433.12,0.06155
1409.97,0.06201
1386.82,0.05575
1363.68,0.05572
1340.53,0.05806
1317.39,0.05733
1294.24,0.05478
1271.09,0.05568
1247.95,0.07258
1224.8,0.06152
1201.66,0.05823
1178.51,0.06023
1155.36,0.06002
1132.22,0.05932
1109.07,0.06048
1085.93,0.05937
1062.78,0.05908
1039.64,0.05822
1016.49,0.06291
993.344,0.06227
970.198,0.06069
947.052,0.06055
923.906,0.06674
900.76,0.07533
877.614,0.07534
854.468,0.07207
831.323,0.07068
808.177,0.06971
785.031,0.07785
761.885,0.08178
738.739,0.05901
715.593,0.06146
692.447,0.09824
669.301,0.09348
646.156,0.06038
623.01,0.05724
599.864,0.05687