File: 01_Data/Helmet_Shield_Bracket/STA/N2/30K_min/Helmet_Shield_Bracket_STA_N2_30KData_250520_R2.csv
Temp./C,Time/min,DSC/(mW/mg),Mass loss/mg
40.0,0.0,1.51103,-0.0178959
42.6,0.159188,1.78677,-0.0193022
45.2,0.302436,2.03035,-0.0212058
47.8,0.435828,2.25973,-0.0221082
50.4,0.561371,2.46717,-0.0221633
53,0.684242,2.6695,-0.0228938
55.6,0.801171,2.8564,-0.0222039
58.2,0.91473,3.04053,-0.0235945
60.8,1.02525,3.2067,-0.0231782
63.4,1.1333,3.36307,-0.0256423
66,1.23861,3.51636,-0.0271503
68.6,1.3435,3.65011,-0.0275646
71.2,1.44507,3.79025,-0.0281482
73.8,1.54798,3.91951,-0.0301495
76.4,1.64837,4.04274,-0.0305805
79,1.7481,4.15173,-0.0323392
81.6,1.84623,4.2457,-0.0321116
84.2,1.94323,4.35411,-0.0349661
86.8,2.03928,4.45662,-0.0363597
89.4,2.13392,4.56904,-0.0377505
92,2.22751,4.66117,-0.0383901
94.6,2.32051,4.74905,-0.0407809
97.2,2.41228,4.80336,-0.0419401
99.8,2.50331,4.8539,-0.0432875
102.4,2.59326,4.86754,-0.0458743
105,2.68338,4.87638,-0.0486423
107.6,2.77246,4.89603,-0.0476448
110.2,2.86025,4.90826,-0.0486809
112.8,2.94956,4.92581,-0.0500417
115.4,3.03794,4.9477,-0.052588
118,3.1253,4.95356,-0.0538517
120.6,3.21252,4.96694,-0.0552127
123.2,3.29909,4.96975,-0.0559079
125.8,3.38491,4.97947,-0.059176
128.4,3.47004,4.99504,-0.0601171
131,3.55528,5.00767,-0.0618095
133.6,3.63948,5.03949,-0.0604976
136.2,3.72394,5.05409,-0.0604903
138.8,3.80738,5.07227,-0.0608234
141.4,3.89013,5.08126,-0.0631228
144,3.97302,5.10981,-0.0631248
146.6,4.05557,5.12325,-0.0631284
149.2,4.13724,5.14036,-0.0631225
151.8,4.21904,5.17795,-0.0645645
154.4,4.30051,5.21791,-0.0657621
157,4.38165,5.25282,-0.0670801
159.6,4.46232,5.27661,-0.0670802
162.2,4.54373,5.32385,-0.0680691
164.8,4.62397,5.34623,-0.06807
167.4,4.7043,5.39342,-0.0693957
170,4.78477,5.43647,-0.06939
172.6,4.86429,5.48421,-0.0694736
175.2,4.94468,5.52329,-0.07071
177.8,5.02455,5.55765,-0.0707076
180.4,5.10408,5.6067,-0.0720199
183,5.18306,5.65871,-0.0730616
185.6,5.26229,5.69496,-0.0733339
188.2,5.34087,5.73999,-0.0733396
190.8,5.41947,5.79,-0.0733393
193.4,5.49792,5.84701,-0.0746585
196,5.57636,5.89604,-0.0747071
198.6,5.65402,5.95945,-0.07597
201.2,5.73248,6.01816,-0.0754092
203.8,5.80997,6.0811,-0.0762875
206.4,5.88763,6.14946,-0.0762934
209,5.96577,6.21627,-0.0785877
211.6,6.04342,6.28546,-0.0799303
214.2,6.12137,6.35327,-0.0799226
216.8,6.19868,6.42252,-0.0815552
219.4,6.27627,6.50903,-0.0832069
222,6.35401,6.63393,-0.08322
224.6,6.43173,6.85905,-0.0845012
227.2,6.51113,7.34844,-0.085804
229.8,6.59161,8.30994,-0.0848503
232.4,6.67273,9.48464,-0.0858497
235,6.75442,10.7185,-0.087173
237.6,6.83645,12.136,-0.08717
240.2,6.9193,13.6498,-0.0875681
242.8,6.99384,12.9502,-0.0861979
245.4,7.06217,10.3301,-0.08717
248,7.13385,8.70766,-0.0891837
250.6,7.20661,7.70477,-0.0898202
253.2,7.28095,7.09009,-0.0898011
255.8,7.35611,6.71088,-0.0924191
258.4,7.43178,6.5007,-0.0914517
261,7.50799,6.36883,-0.0914449
263.6,7.58396,6.28479,-0.0927599
266.2,7.66006,6.23439,-0.0924651
268.8,7.73666,6.22154,-0.0924436
271.4,7.81283,6.21894,-0.0924348
274,7.88957,6.22216,-0.0952911
276.6,7.966,6.22564,-0.0938712
279.2,8.04245,6.23883,-0.0938637
281.8,8.11914,6.25839,-0.0938848
284.4,8.19616,6.28913,-0.0951931
287,8.27265,6.33017,-0.0961572
289.6,8.3498,6.38057,-0.0959229
292.2,8.42689,6.45362,-0.0982204
294.8,8.50356,6.53081,-0.0979097
297.4,8.58051,6.626,-0.0991223
300,8.65789,6.74124,-0.100955
302.6,8.73505,6.87852,-0.104011
305.2,8.81248,7.03831,-0.105298
307.8,8.8899,7.22602,-0.109025
310.4,8.96772,7.44813,-0.112998
313,9.04544,7.71248,-0.116721
315.6,9.12362,8.02137,-0.122896
318.2,9.20197,8.39085,-0.129718
320.8,9.28028,8.83215,-0.137567
323.4,9.35936,9.35752,-0.14475
326,9.43854,9.94163,-0.154038
328.6,9.51829,10.6357,-0.165428
331.2,9.59838,11.4884,-0.178506
333.8,9.67937,12.4627,-0.193678
336.4,9.76057,13.5427,-0.211861
339,9.84232,14.7047,-0.229538
341.6,9.92239,15.6396,-0.25514
344.2,10.0004,15.4426,-0.280625
346.8,10.0719,13.4542,-0.299677
349.4,10.1422,11.1488,-0.319976
352,10.2147,9.54454,-0.33489
354.6,10.289,8.47683,-0.347857
357.2,10.3642,7.80628,-0.359309
359.8,10.4405,7.36914,-0.367552
362.4,10.5174,7.07646,-0.375299
365,10.5949,6.86595,-0.382692
367.6,10.6723,6.74748,-0.390385
370.2,10.7507,6.65753,-0.395365
372.8,10.8287,6.63646,-0.402263
375.4,10.907,6.61484,-0.406833
378,10.9855,6.65615,-0.412701
380.6,11.0644,6.68619,-0.417788
383.2,11.1433,6.75833,-0.422993
385.8,11.2226,6.84191,-0.429931
388.4,11.3016,6.94698,-0.435329
391,11.3811,7.07943,-0.442371
393.6,11.4606,7.21842,-0.452714
396.2,11.5403,7.40717,-0.463287
398.8,11.6203,7.57773,-0.474358
401.4,11.7003,7.81114,-0.486108
404,11.7803,8.07108,-0.499397
406.6,11.8609,8.37026,-0.515676
409.2,11.9412,8.69757,-0.533845
411.8,12.0225,9.07548,-0.555322
414.4,12.1034,9.49897,-0.58129
417,12.1853,9.98718,-0.611466
419.6,12.2668,10.502,-0.645765
422.2,12.3489,11.0637,-0.68446
424.8,12.4308,11.662,-0.726994
427.4,12.5133,12.2638,-0.776344
430,12.5957,12.8899,-0.833059
432.6,12.6781,13.5014,-0.897556
435.2,12.7609,14.1349,-0.969105
437.8,12.8434,14.6667,-1.04948
440.4,12.9257,15.1839,-1.13738
443,13.0078,15.576,-1.23235
445.6,13.0897,15.8409,-1.33522
448.2,13.1713,16.0916,-1.44276
450.8,13.2531,16.3087,-1.56033
453.4,13.3347,16.4965,-1.68439
456,13.4163,16.6554,-1.81897
458.6,13.4978,16.7787,-1.96039
461.2,13.5791,16.8048,-2.10627
463.8,13.6598,16.7401,-2.26056
466.4,13.7405,16.4513,-2.42097
469,13.8202,15.9984,-2.58003
471.6,13.8991,15.3176,-2.73674
474.2,13.9774,14.3592,-2.89254
476.8,14.0545,13.1552,-3.04058
479.4,14.1311,11.6888,-3.17755
482,14.2069,10.0636,-3.30116
484.6,14.2831,8.35587,-3.4125
487.2,14.3586,6.75073,-3.51001
489.8,14.4352,5.3147,-3.59077
492.4,14.5125,4.09521,-3.6563
495,14.5902,3.14331,-3.71025
497.6,14.6693,2.34238,-3.75179
500.2,14.7488,1.70764,-3.78488
502.8,14.8287,1.23027,-3.80827
505.4,14.9095,0.897242,-3.82519
508,14.9907,0.661439,-3.83653
510.6,15.0722,0.516028,-3.8425
513.2,15.1538,0.435042,-3.8466
515.8,15.2355,0.377844,-3.84914
518.4,15.3182,0.34045,-3.85195
521,15.4009,0.316685,-3.85422
523.6,15.4835,0.308426,-3.85469
526.2,15.5659,0.303559,-3.85579
528.8,15.6482,0.278179,-3.85436
531.4,15.7313,0.269948,-3.85569
534,15.814,0.267757,-3.85569
536.6,15.8968,0.260654,-3.85693
539.2,15.9799,0.253135,-3.857
541.8,16.0625,0.249068,-3.8584
544.4,16.1456,0.251614,-3.85831
547,16.229,0.262154,-3.85695
549.6,16.3117,0.240485,-3.85728
552.2,16.3949,0.234196,-3.85834
554.8,16.4784,0.226003,-3.85799
557.4,16.5615,0.21262,-3.8593
560,16.6452,0.20632,-3.86014
562.6,16.7286,0.199499,-3.8637
565.2,16.812,0.19527,-3.86084
567.8,16.8954,0.198756,-3.85952
570.4,16.9789,0.192604,-3.8595
573,17.0625,0.173947,-3.86051
575.6,17.146,0.169117,-3.86051
578.2,17.2296,0.156183,-3.86216
580.8,17.3135,0.146161,-3.86216
583.4,17.3971,0.118642,-3.86346
586,17.481,0.103141,-3.8605
588.6,17.5648,0.0996201,-3.86205
591.2,17.6488,0.0954611,-3.86186
593.8,17.732,0.0696363,-3.86139
596.4,17.817,0.0738292,-3.86139
599,17.9009,0.0621698,-3.86377
601.6,17.985,0.0493901,-3.86558
604.2,18.0691,0.0408283,-3.86003
606.8,18.1528,0.0266297,-3.86007
609.4,18.2376,0.0186522,-3.86139
612,18.322,0.0111809,-3.86269
614.6,18.4066,0.0162178,-3.86401
617.2,18.4911,-0.000564924,-3.86402
619.8,18.5758,-0.0074941,-3.86403
622.4,18.66,-0.0221254,-3.86434
625,18.7446,-0.0277523,-3.86435
627.6,18.8295,-0.0346765,-3.86303
630.2,18.914,-0.0467218,-3.86382
632.8,18.9984,-0.0495446,-3.86409
635.4,19.0834,-0.059457,-3.86402
638,19.1679,-0.0640012,-3.86531
640.6,19.2533,-0.0780422,-3.86403
643.2,19.338,-0.0734618,-3.8599
645.8,19.4229,-0.0762745,-3.86655
648.4,19.5079,-0.0810341,-3.86655
651,19.5929,-0.0868203,-3.86523
653.6,19.6775,-0.0949059,-3.86523
656.2,19.7627,-0.0865047,-3.86387
658.8,19.8478,-0.101464,-3.8623
661.4,19.933,-0.101811,-3.86611
664,20.0181,-0.117077,-3.86611
666.6,20.1024,-0.116535,-3.86611
669.2,20.1884,-0.123695,-3.86611
671.8,20.2735,-0.135882,-3.86611
674.4,20.3587,-0.14485,-3.86479
677,20.444,-0.144856,-3.86414
679.6,20.5293,-0.140968,-3.86545
682.2,20.6146,-0.15276,-3.86545
684.8,20.6999,-0.160545,-3.86679
687.4,20.7853,-0.164987,-3.86676
690,20.8704,-0.168451,-3.86675
692.6,20.9557,-0.171366,-3.86628
695.2,21.0413,-0.175184,-3.86642
697.8,21.1268,-0.186192,-3.86808
700.4,21.2125,-0.174876,-3.86809
703,21.298,-0.180883,-3.86743
705.6,21.3834,-0.189077,-3.86688
708.2,21.4689,-0.19581,-3.86809
710.8,21.5554,-0.192834,-3.86768
713.4,21.6409,-0.197966,-3.8694
716,21.7269,-0.211751,-3.86816
718.6,21.8126,-0.211945,-3.86808
721.2,21.8985,-0.214672,-3.86947
723.8,21.9845,-0.22578,-3.86808
726.4,22.0703,-0.22427,-3.86809
729,22.1563,-0.230766,-3.86809
731.6,22.2423,-0.239689,-3.86809
734.2,22.3283,-0.238279,-3.86941
736.8,22.4142,-0.24214,-3.86941
739.4,22.5004,-0.245227,-3.87258
742,22.5863,-0.250103,-3.86961
744.6,22.6725,-0.261742,-3.86962
747.2,22.7582,-0.270534,-3.87049
749.8,22.8445,-0.263742,-3.87326
752.4,22.9307,-0.263816,-3.871
755,23.0167,-0.257535,-3.87237
757.6,23.1029,-0.255744,-3.87335
760.2,23.1894,-0.255339,-3.87222
762.8,23.276,-0.250572,-3.87236
765.4,23.3621,-0.244781,-3.87105
768,23.4486,-0.24503,-3.87204
770.6,23.5352,-0.241173,-3.87102
773.2,23.6217,-0.230649,-3.87103
775.8,23.7081,-0.219861,-3.87237
778.4,23.7946,-0.221979,-3.87279
781,23.8809,-0.222328,-3.87226
783.6,23.9676,-0.226963,-3.87164
786.2,24.0542,-0.227917,-3.87244
788.8,24.1411,-0.225328,-3.87236
790,24.1813,-0.230215,-3.87236