File: 01_Data/Helmet_Shield_Bracket/STA/N2/30K_min/Helmet_Shield_Bracket_STA_N2_30KData_250520_R1.csv
Temp./C,Time/min,DSC/(mW/mg),Mass loss/mg
40.0,0.0,1.50954,-0.0133889
42.6,0.157208,1.79434,-0.0153264
45.2,0.300718,2.04151,-0.0158465
47.8,0.435294,2.27805,-0.0145294
50.4,0.561287,2.49138,-0.0156198
53,0.682498,2.69488,-0.0182715
55.6,0.798294,2.87314,-0.0160316
58.2,0.910992,3.06095,-0.0176934
60.8,1.02151,3.22746,-0.0194709
63.4,1.12893,3.38643,-0.0196308
66,1.23446,3.5254,-0.0218343
68.6,1.3386,3.66507,-0.0230843
71.2,1.44113,3.80503,-0.0245442
73.8,1.54256,3.92239,-0.026294
76.4,1.64303,4.05624,-0.0263353
79,1.74166,4.17909,-0.0278149
81.6,1.83986,4.29624,-0.0295342
84.2,1.93709,4.40128,-0.0299692
86.8,2.03219,4.51925,-0.0323437
89.4,2.12723,4.6195,-0.0336983
92,2.22056,4.72217,-0.034997
94.6,2.31354,4.79576,-0.0366028
97.2,2.40547,4.84934,-0.0387744
99.8,2.4961,4.9,-0.04051
102.4,2.58666,4.92995,-0.0418319
105,2.6763,4.95136,-0.0425549
107.6,2.76553,4.9641,-0.0438152
110.2,2.85449,4.99079,-0.0464182
112.8,2.94278,5.01146,-0.0464414
115.4,3.03046,5.02292,-0.049082
118,3.11831,5.06079,-0.0503898
120.6,3.20494,5.08403,-0.0503701
123.2,3.29167,5.10604,-0.0517107
125.8,3.37784,5.11738,-0.0543386
128.4,3.46232,5.14502,-0.0556545
131,3.54823,5.16874,-0.0566815
133.6,3.6329,5.1902,-0.0579597
136.2,3.7167,5.21515,-0.0569699
138.8,3.79987,5.22837,-0.058288
141.4,3.88355,5.26731,-0.0596103
144,3.9664,5.29307,-0.0601255
146.6,4.04877,5.31865,-0.0619187
149.2,4.13052,5.33459,-0.0619185
151.8,4.21251,5.35622,-0.0615901
154.4,4.2937,5.39681,-0.0619825
157,4.37484,5.42181,-0.0629
159.6,4.45599,5.45305,-0.0628979
162.2,4.53716,5.4913,-0.0631295
164.8,4.61759,5.52469,-0.065543
167.4,4.698,5.58458,-0.06554
170,4.77847,5.61418,-0.0655375
172.6,4.85875,5.65555,-0.0658695
175.2,4.93866,5.70161,-0.0671905
177.8,5.01874,5.74977,-0.0685005
180.4,5.09834,5.80259,-0.0685
183,5.17752,5.85226,-0.0698999
185.6,5.25685,5.89427,-0.0722428
188.2,5.33545,5.95461,-0.07213
190.8,5.41437,6.00061,-0.0721364
193.4,5.49308,6.05938,-0.0721753
196,5.57158,6.10525,-0.07344
198.6,5.64992,6.17749,-0.0733941
201.2,5.72745,6.23988,-0.0737716
203.8,5.80649,6.30964,-0.0739955
206.4,5.88456,6.38679,-0.0750861
209,5.96258,6.45277,-0.0764096
211.6,6.0405,6.53889,-0.0777207
214.2,6.11828,6.60033,-0.0790401
216.8,6.19591,6.67063,-0.0803608
219.4,6.27432,6.77244,-0.080007
222,6.35207,6.91149,-0.08136
224.6,6.42971,7.09807,-0.0824965
227.2,6.50931,7.54436,-0.0839826
229.8,6.5899,8.47165,-0.0840035
232.4,6.67149,9.61991,-0.08399
235,6.75282,10.8175,-0.0839899
237.6,6.83515,12.2116,-0.0853083
240.2,6.91813,13.7271,-0.0858812
242.8,6.99364,13.3312,-0.08662
245.4,7.06228,10.7344,-0.086503
248,7.13407,9.0823,-0.0875692
250.6,7.20731,8.0801,-0.0879398
253.2,7.28189,7.42824,-0.0884931
255.8,7.3571,7.0506,-0.0882827
258.4,7.43317,6.84325,-0.0895802
261,7.50913,6.6971,-0.0908758
263.6,7.5856,6.60213,-0.0909334
266.2,7.66239,6.5587,-0.0905641
268.8,7.73865,6.54,-0.0906567
271.4,7.81536,6.55301,-0.0918898
274,7.89198,6.55329,-0.0918905
276.6,7.96857,6.56143,-0.0932002
279.2,8.04545,6.55525,-0.0931965
281.8,8.1226,6.57825,-0.0932069
284.4,8.19949,6.60897,-0.0945319
287,8.27669,6.6425,-0.0951727
289.6,8.35372,6.7088,-0.095849
292.2,8.43057,6.77283,-0.0958496
294.8,8.50799,6.85534,-0.0970694
297.4,8.58531,6.92182,-0.0971617
300,8.66262,7.04684,-0.0987263
302.6,8.7401,7.16419,-0.100039
305.2,8.81752,7.31658,-0.103738
307.8,8.89506,7.49692,-0.105201
310.4,8.97287,7.71451,-0.108634
313,9.05104,7.98068,-0.11253
315.6,9.12933,8.29181,-0.117877
318.2,9.20745,8.64092,-0.124372
320.8,9.28616,9.03995,-0.131037
323.4,9.36496,9.51715,-0.13844
326,9.44458,10.0942,-0.148448
328.6,9.52398,10.777,-0.158308
331.2,9.60425,11.5936,-0.171001
333.8,9.68488,12.4978,-0.186673
336.4,9.76605,13.5461,-0.203776
339,9.84761,14.6469,-0.222968
341.6,9.92896,15.7035,-0.246125
344.2,10.0076,15.8835,-0.270937
346.8,10.08,14.1639,-0.293876
349.4,10.1504,11.8569,-0.309452
352,10.2229,10.1564,-0.32514
354.6,10.2968,9.05279,-0.339274
357.2,10.3721,8.3415,-0.34912
359.8,10.4485,7.89551,-0.358727
362.4,10.5253,7.60236,-0.368011
365,10.6029,7.39728,-0.376219
367.6,10.6802,7.26568,-0.383297
370.2,10.7585,7.19003,-0.392102
372.8,10.8367,7.14812,-0.396551
375.4,10.915,7.13245,-0.400839
378,10.9939,7.13255,-0.406516
380.6,11.0727,7.17831,-0.413145
383.2,11.1516,7.24785,-0.41827
385.8,11.2304,7.31908,-0.424237
388.4,11.3098,7.42075,-0.430071
391,11.3891,7.54551,-0.438406
393.6,11.4685,7.67852,-0.447579
396.2,11.5484,7.85656,-0.454912
398.8,11.6284,8.0431,-0.465184
401.4,11.7078,8.24189,-0.47789
404,11.7885,8.49358,-0.491485
406.6,11.8687,8.77939,-0.507405
409.2,11.9495,9.07671,-0.526207
411.8,12.0305,9.43269,-0.546101
414.4,12.1114,9.81618,-0.569138
417,12.1921,10.2399,-0.595582
419.6,12.2741,10.7261,-0.62731
422.2,12.3559,11.2696,-0.663328
424.8,12.4385,11.8294,-0.706437
427.4,12.5204,12.4081,-0.753892
430,12.6032,13.0617,-0.807781
432.6,12.6852,13.6667,-0.870031
435.2,12.768,14.3206,-0.939918
437.8,12.851,14.9429,-1.01866
440.4,12.9332,15.4875,-1.10469
443,13.0157,15.929,-1.19746
445.6,13.0976,16.2745,-1.29597
448.2,13.1783,16.5223,-1.4004
450.8,13.2607,16.7093,-1.51644
453.4,13.3425,16.8872,-1.63912
456,13.4242,17.0383,-1.76732
458.6,13.5055,17.1791,-1.90462
461.2,13.5869,17.2177,-2.0495
463.8,13.6677,17.1595,-2.19985
466.4,13.7483,16.9612,-2.35433
469,13.8287,16.6222,-2.51244
471.6,13.9081,16.0939,-2.66976
474.2,13.9866,15.291,-2.82585
476.8,14.0645,14.2464,-2.97685
479.4,14.1415,13.0019,-3.1186
482,14.218,11.5412,-3.24948
484.6,14.2939,9.91583,-3.36834
487.2,14.3695,8.23692,-3.47181
489.8,14.4457,6.64381,-3.55666
492.4,14.5222,5.24899,-3.62806
495,14.5996,4.08575,-3.6885
497.6,14.678,3.1533,-3.73573
500.2,14.757,2.42696,-3.76816
502.8,14.8367,1.88559,-3.7938
505.4,14.9175,1.48824,-3.81204
508,14.9984,1.21724,-3.82387
510.6,15.0798,1.0626,-3.82965
513.2,15.1615,0.946093,-3.83536
515.8,15.2436,0.871192,-3.8382
518.4,15.3259,0.839429,-3.84149
521,15.4085,0.802857,-3.84393
523.6,15.4912,0.776264,-3.84392
526.2,15.5739,0.746437,-3.84607
528.8,15.6566,0.745437,-3.84657
531.4,15.7394,0.718793,-3.84661
534,15.8224,0.712133,-3.84525
536.6,15.9052,0.694067,-3.84668
539.2,15.9886,0.673318,-3.84799
541.8,16.0714,0.668996,-3.84898
544.4,16.1547,0.657709,-3.84898
547,16.2375,0.645581,-3.84896
549.6,16.321,0.634389,-3.84766
552.2,16.4042,0.624654,-3.84898
554.8,16.4875,0.604607,-3.85071
557.4,16.571,0.588339,-3.85063
560,16.6545,0.571463,-3.85063
562.6,16.7378,0.564311,-3.85062
565.2,16.8212,0.539271,-3.85199
567.8,16.9051,0.518433,-3.85089
570.4,16.9882,0.497259,-3.85063
573,17.0717,0.48472,-3.85096
575.6,17.1555,0.461733,-3.85096
578.2,17.2392,0.461523,-3.85104
580.8,17.3228,0.450219,-3.85128
583.4,17.4063,0.443781,-3.85128
586,17.49,0.416024,-3.85095
588.6,17.5741,0.410547,-3.85227
591.2,17.6576,0.403232,-3.85227
593.8,17.7413,0.395847,-3.85227
596.4,17.8254,0.39275,-3.85359
599,17.909,0.381534,-3.8526
601.6,17.9931,0.371907,-3.85267
604.2,18.0769,0.363397,-3.85392
606.8,18.1611,0.368694,-3.85261
609.4,18.2451,0.345356,-3.85306
612,18.3292,0.342954,-3.85327
614.6,18.4129,0.33128,-3.85327
617.2,18.4977,0.321588,-3.85284
619.8,18.5819,0.329222,-3.85228
622.4,18.6662,0.320018,-3.85301
625,18.7508,0.306183,-3.85425
627.6,18.8351,0.296551,-3.85425
630.2,18.9198,0.291619,-3.85401
632.8,19.0038,0.275935,-3.8531
635.4,19.0886,0.268382,-3.85392
638,19.1727,0.257886,-3.85261
640.6,19.2578,0.252571,-3.85252
643.2,19.3424,0.247426,-3.85393
645.8,19.4268,0.242338,-3.85492
648.4,19.5119,0.226467,-3.85492
651,19.5964,0.220261,-3.85425
653.6,19.6813,0.214537,-3.85426
656.2,19.7659,0.207376,-3.85459
658.8,19.8515,0.199239,-3.8559
661.4,19.936,0.189046,-3.85594
664,20.02,0.188319,-3.85712
666.6,20.1059,0.180478,-3.85655
669.2,20.1908,0.18167,-3.85524
671.8,20.2759,0.177817,-3.85656
674.4,20.361,0.17244,-3.8572
677,20.4461,0.175484,-3.85792
679.6,20.5313,0.172554,-3.85678
682.2,20.6164,0.163904,-3.85678
684.8,20.7016,0.165577,-3.85611
687.4,20.7873,0.160209,-3.85639
690,20.8724,0.163893,-3.85743
692.6,20.9581,0.155653,-3.85612
695.2,21.0433,0.146151,-3.85612
697.8,21.1289,0.156428,-3.85746
700.4,21.2143,0.152181,-3.85711
703,21.3,0.156607,-3.85711
705.6,21.3853,0.158137,-3.85718
708.2,21.4711,0.157288,-3.85696
710.8,21.5567,0.158358,-3.85744
713.4,21.6424,0.15817,-3.85744
716,21.728,0.151392,-3.85874
718.6,21.8138,0.151993,-3.86007
721.2,21.8997,0.144087,-3.86007
723.8,21.986,0.148554,-3.86007
726.4,22.0718,0.14395,-3.85974
729,22.1579,0.146472,-3.86039
731.6,22.2437,0.145623,-3.86073
734.2,22.3298,0.153034,-3.86073
736.8,22.4163,0.15406,-3.86073
739.4,22.5022,0.154991,-3.86138
742,22.5886,0.167394,-3.86138
744.6,22.675,0.169511,-3.86204
747.2,22.7613,0.169486,-3.86073
749.8,22.8475,0.171524,-3.86139
752.4,22.9337,0.165215,-3.86278
755,23.0204,0.18079,-3.86139
757.6,23.1067,0.183481,-3.86139
760.2,23.1926,0.195033,-3.86272
762.8,23.2795,0.195939,-3.86271
765.4,23.3659,0.18343,-3.86273
768,23.4526,0.181705,-3.86392
770.6,23.5387,0.188371,-3.86258
773.2,23.6255,0.174682,-3.86133
775.8,23.7118,0.171321,-3.86293
778.4,23.7987,0.161124,-3.86505
781,23.8853,0.158463,-3.86552
783.6,23.9713,0.165229,-3.86333
786.2,24.0578,0.170583,-3.86205
788.8,24.1443,0.157515,-3.86212
790,24.1844,0.160551,-3.86238