File: 01_Data/Helmet_Flap/STA/N2/30K_min/Helmet_Flap_STA_N2_30KData_250514_R1.csv
Temp./C,Time/min,DSC/(mW/mg),Mass loss/mg
40.0,0.0,1.35254,-0.120599
42.6,0.15898,1.59877,-0.123637
45.2,0.303202,1.8107,-0.124855
47.8,0.437793,2.01558,-0.126685
50.4,0.564579,2.2247,-0.12715
53,0.686403,2.44614,-0.132138
55.6,0.804294,2.65931,-0.133435
58.2,0.917322,2.85784,-0.134071
60.8,1.02873,3.06656,-0.13739
63.4,1.13738,3.26755,-0.140915
66,1.24303,3.46715,-0.145666
68.6,1.34834,3.66123,-0.149596
71.2,1.45113,3.85211,-0.153247
73.8,1.55306,4.02629,-0.158368
76.4,1.65374,4.17922,-0.161555
79,1.75322,4.31737,-0.163356
81.6,1.85024,4.42265,-0.167418
84.2,1.94818,4.50325,-0.17223
86.8,2.04381,4.55952,-0.177022
89.4,2.13832,4.59141,-0.181236
92,2.23115,4.58751,-0.186708
94.6,2.32351,4.54486,-0.18936
97.2,2.41456,4.49593,-0.194088
99.8,2.50523,4.42746,-0.194549
102.4,2.59509,4.35097,-0.197254
105,2.68381,4.25978,-0.199927
107.6,2.77284,4.13946,-0.203988
110.2,2.86133,4.02998,-0.206485
112.8,2.94851,3.90892,-0.208435
115.4,3.03623,3.79062,-0.210461
118,3.12291,3.67894,-0.211395
120.6,3.20921,3.58579,-0.213118
123.2,3.29527,3.49418,-0.215075
125.8,3.38079,3.38085,-0.216358
128.4,3.46594,3.28052,-0.21638
131,3.55006,3.19139,-0.217724
133.6,3.63405,3.13125,-0.217726
136.2,3.71778,3.06957,-0.217395
138.8,3.80118,3.03744,-0.216712
141.4,3.88374,3.03228,-0.21771
144,3.96591,3.01518,-0.219288
146.6,4.04883,3.01709,-0.220471
149.2,4.13075,3.03643,-0.220661
151.8,4.21249,3.04372,-0.218984
154.4,4.29348,3.0699,-0.218118
157,4.37491,3.08512,-0.217097
159.6,4.45612,3.11478,-0.2177
162.2,4.53697,3.14404,-0.2177
164.8,4.61725,3.17682,-0.2177
167.4,4.69789,3.20366,-0.219022
170,4.77826,3.23563,-0.219006
172.6,4.85821,3.25574,-0.221367
175.2,4.93802,3.28359,-0.22132
177.8,5.01781,3.31606,-0.221329
180.4,5.09738,3.33701,-0.22165
183,5.17595,3.37189,-0.221635
185.6,5.2555,3.39678,-0.221549
188.2,5.33417,3.41678,-0.223019
190.8,5.41247,3.44424,-0.22297
193.4,5.49115,3.45021,-0.224308
196,5.56938,3.4733,-0.223958
198.6,5.64742,3.48828,-0.225279
201.2,5.72519,3.50519,-0.225282
203.8,5.80298,3.52542,-0.226591
206.4,5.88079,3.55355,-0.226943
209,5.95856,3.56312,-0.227974
211.6,6.03534,3.56083,-0.228569
214.2,6.11382,3.57683,-0.229993
216.8,6.19116,3.57455,-0.231195
219.4,6.26853,3.57376,-0.232523
222,6.34557,3.55602,-0.233683
224.6,6.42257,3.54249,-0.23513
227.2,6.49995,3.52859,-0.237237
229.8,6.57692,3.52095,-0.237208
232.4,6.65393,3.48735,-0.239984
235,6.73083,3.46591,-0.24385
237.6,6.80762,3.44994,-0.246927
240.2,6.88438,3.41515,-0.249714
242.8,6.96043,3.382,-0.253802
245.4,7.03767,3.36594,-0.258092
248,7.11484,3.39589,-0.262146
250.6,7.19316,3.87145,-0.266368
253.2,7.27103,4.28779,-0.273041
255.8,7.34749,4.05638,-0.277625
258.4,7.42391,3.9956,-0.283862
261,7.49984,3.7467,-0.289117
263.6,7.57546,3.48015,-0.294923
266.2,7.6516,3.32679,-0.302781
268.8,7.72759,3.23214,-0.308312
271.4,7.80407,3.18513,-0.313302
274,7.8804,3.13081,-0.320441
276.6,7.95667,3.07898,-0.327125
279.2,8.03339,3.03545,-0.33282
281.8,8.10982,2.97116,-0.33992
284.4,8.18618,2.89591,-0.3471
287,8.26247,2.79171,-0.355465
289.6,8.33861,2.67035,-0.36257
292.2,8.41484,2.53018,-0.369122
294.8,8.49112,2.35269,-0.377393
297.4,8.56693,2.15372,-0.384745
300,8.64304,1.91726,-0.393141
302.6,8.71838,1.65406,-0.401773
305.2,8.79469,1.33124,-0.41152
307.8,8.87016,0.900062,-0.421622
310.4,8.94504,0.317277,-0.431639
313,9.0191,-0.494539,-0.445364
315.6,9.09184,-1.66245,-0.467051
318.2,9.16307,-3.21499,-0.493503
320.8,9.23492,-4.74038,-0.535951
323.4,9.3097,-5.19135,-0.613952
326,9.38912,-4.19248,-0.741979
328.6,9.46983,-2.7907,-0.898872
331.2,9.55052,-1.72209,-1.06083
333.8,9.62942,-1.12444,-1.2119
336.4,9.70761,-0.799534,-1.35045
339,9.78643,-0.405397,-1.46465
341.6,9.8666,0.263365,-1.54659
344.2,9.94641,0.979337,-1.59266
346.8,10.0263,1.49901,-1.61666
349.4,10.1054,1.75451,-1.63206
352,10.1842,1.83996,-1.6436
354.6,10.2623,1.84614,-1.65395
357.2,10.3406,1.81019,-1.66234
359.8,10.4188,1.76059,-1.67023
362.4,10.4967,1.69947,-1.67827
365,10.5752,1.65496,-1.68469
367.6,10.6536,1.61888,-1.69216
370.2,10.7315,1.58336,-1.70071
372.8,10.8103,1.54985,-1.70906
375.4,10.8888,1.53802,-1.71777
378,10.9676,1.53099,-1.72525
380.6,11.0463,1.53892,-1.73405
383.2,11.1253,1.56995,-1.74463
385.8,11.2044,1.60703,-1.75316
388.4,11.2837,1.66797,-1.76368
391,11.3629,1.74167,-1.77378
393.6,11.4426,1.83682,-1.78628
396.2,11.5223,1.93621,-1.79694
398.8,11.6016,2.04904,-1.80994
401.4,11.6818,2.14352,-1.8229
404,11.7614,2.22198,-1.83551
406.6,11.841,2.27731,-1.84703
409.2,11.9208,2.29636,-1.86207
411.8,12.0006,2.29296,-1.87435
414.4,12.0802,2.25775,-1.88754
417,12.1597,2.19376,-1.89705
419.6,12.2396,2.11079,-1.91013
422.2,12.3192,2.01864,-1.92018
424.8,12.3988,1.89956,-1.93079
427.4,12.4785,1.7783,-1.94296
430,12.5582,1.65286,-1.95287
432.6,12.6381,1.54562,-1.96382
435.2,12.7176,1.44158,-1.97523
437.8,12.798,1.37092,-1.98628
440.4,12.8783,1.32055,-1.99686
443,12.9585,1.28758,-2.0078
445.6,13.0389,1.25985,-2.01747
448.2,13.1196,1.2569,-2.02769
450.8,13.2002,1.25319,-2.03758
453.4,13.2811,1.24459,-2.04554
456,13.3621,1.25219,-2.05802
458.6,13.4432,1.2574,-2.0662
461.2,13.5244,1.26852,-2.07587
463.8,13.6056,1.28919,-2.0861
466.4,13.6868,1.29779,-2.09406
469,13.7685,1.31299,-2.10294
471.6,13.8498,1.32,-2.11177
474.2,13.9312,1.32667,-2.12152
476.8,14.0131,1.33038,-2.13012
479.4,14.0949,1.3333,-2.1391
482,14.1764,1.34799,-2.14582
484.6,14.2584,1.34796,-2.15551
487.2,14.3406,1.3646,-2.16479
489.8,14.422,1.38509,-2.17071
492.4,14.5039,1.39467,-2.17718
495,14.5861,1.41218,-2.18449
497.6,14.6686,1.42375,-2.19221
500.2,14.7503,1.44687,-2.19936
502.8,14.8328,1.46083,-2.20494
505.4,14.9153,1.48266,-2.21087
508,14.9975,1.4991,-2.21648
510.6,15.0795,1.52399,-2.22294
513.2,15.1624,1.54632,-2.22832
515.8,15.2447,1.57229,-2.23257
518.4,15.3276,1.59201,-2.23732
521,15.4103,1.61979,-2.24185
523.6,15.4929,1.64066,-2.24796
526.2,15.5757,1.65991,-2.25356
528.8,15.6585,1.68574,-2.25941
531.4,15.7415,1.72019,-2.26323
534,15.8243,1.73421,-2.26786
536.6,15.9072,1.7676,-2.27247
539.2,15.9902,1.78844,-2.27743
541.8,16.0733,1.80282,-2.28251
544.4,16.1566,1.81803,-2.28788
547,16.2396,1.81944,-2.29431
549.6,16.323,1.8162,-2.29971
552.2,16.4059,1.83006,-2.30394
554.8,16.4893,1.83256,-2.30651
557.4,16.5727,1.8477,-2.31165
560,16.6561,1.85722,-2.31754
562.6,16.7394,1.85253,-2.32087
565.2,16.8227,1.84845,-2.32552
567.8,16.9063,1.84295,-2.3292
570.4,16.9891,1.83364,-2.33407
573,17.0734,1.83573,-2.33731
575.6,17.1571,1.83702,-2.3406
578.2,17.2407,1.83655,-2.34463
580.8,17.3238,1.84228,-2.34784
583.4,17.4079,1.84019,-2.35056
586,17.492,1.8415,-2.35486
588.6,17.576,1.83352,-2.35803
591.2,17.6599,1.83513,-2.36147
593.8,17.7441,1.83368,-2.36376
596.4,17.8279,1.8393,-2.36689
599,17.9119,1.84152,-2.36962
601.6,17.9962,1.84608,-2.37145
604.2,18.0804,1.84056,-2.37416
606.8,18.1638,1.83728,-2.37717
609.4,18.2483,1.83159,-2.38052
612,18.3329,1.81787,-2.38283
614.6,18.4172,1.81477,-2.38527
617.2,18.5016,1.80116,-2.38798
619.8,18.586,1.79231,-2.38926
622.4,18.6709,1.77734,-2.39194
625,18.7548,1.76322,-2.39481
627.6,18.8395,1.75008,-2.39887
630.2,18.9241,1.73499,-2.40158
632.8,19.0087,1.72128,-2.40304
635.4,19.0933,1.70064,-2.40304
638,19.1782,1.68268,-2.40629
640.6,19.2628,1.65786,-2.40938
643.2,19.3474,1.64229,-2.41213
645.8,19.4322,1.62717,-2.41358
648.4,19.5169,1.60407,-2.41741
651,19.6018,1.58107,-2.4185
653.6,19.6867,1.55698,-2.41896
656.2,19.7716,1.53881,-2.42169
658.8,19.8565,1.51711,-2.42451
661.4,19.9411,1.50086,-2.42733
664,20.0263,1.4784,-2.42865
666.6,20.1114,1.46465,-2.43099
669.2,20.1962,1.44366,-2.43298
671.8,20.2813,1.41676,-2.4352
674.4,20.3663,1.3961,-2.43668
677,20.4515,1.38502,-2.43951
679.6,20.5364,1.35461,-2.44043
682.2,20.6219,1.33745,-2.44211
684.8,20.7068,1.31531,-2.44484
687.4,20.792,1.30109,-2.44616
690,20.8772,1.26779,-2.44749
692.6,20.9624,1.25916,-2.44992
695.2,21.0484,1.23981,-2.45232
697.8,21.1337,1.22504,-2.45291
700.4,21.2193,1.20471,-2.4558
703,21.304,1.19627,-2.45478
705.6,21.39,1.17815,-2.45902
708.2,21.4756,1.16497,-2.46162
710.8,21.5609,1.14515,-2.46429
713.4,21.6464,1.12633,-2.4643
716,21.7321,1.10763,-2.46795
718.6,21.8178,1.10196,-2.46914
721.2,21.9034,1.08307,-2.47056
723.8,21.989,1.06946,-2.47239
726.4,22.0746,1.05605,-2.47525
729,22.1608,1.03926,-2.47595
731.6,22.2467,1.01221,-2.47724
734.2,22.3323,0.9966,-2.47869
736.8,22.4181,0.967522,-2.48025
739.4,22.5038,0.937782,-2.48264
742,22.5897,0.916055,-2.48486
744.6,22.6757,0.886984,-2.4882
747.2,22.7615,0.852826,-2.49091
749.8,22.8475,0.827737,-2.49084
752.4,22.9334,0.799417,-2.49306
755,23.0189,0.777876,-2.49533
757.6,23.1055,0.764597,-2.4974
760.2,23.1916,0.764652,-2.50018
762.8,23.2775,0.757677,-2.50152
765.4,23.3637,0.749641,-2.50282
768,23.4497,0.738435,-2.50422
770.6,23.5361,0.736047,-2.50684
773.2,23.6223,0.727971,-2.50898
775.8,23.7086,0.709348,-2.50956
778.4,23.7949,0.695285,-2.51088
781,23.8812,0.685237,-2.51369
783.6,23.9674,0.683538,-2.51405
786.2,24.054,0.667781,-2.51632
788.8,24.1402,0.665255,-2.51866
790,24.1802,0.664719,-2.51894