File: 01_Data/Helmet_Flap/STA/N2/30K_min/Helmet_Flap_STA_N2_30KData_250519_R3.csv
Temp./C,Time/min,DSC/(mW/mg),Mass loss/mg
40.0,0.0,1.295,-0.0572221
42.6,0.160061,1.53868,-0.0578451
45.2,0.303121,1.75153,-0.0572814
47.8,0.436447,1.95907,-0.0592181
50.4,0.563508,2.16155,-0.0606438
53,0.684287,2.354,-0.0627567
55.6,0.800758,2.54759,-0.0638509
58.2,0.913924,2.74893,-0.0712295
60.8,1.02484,2.95313,-0.0734034
63.4,1.13255,3.15192,-0.0725595
66,1.23829,3.3556,-0.0738256
68.6,1.34354,3.5518,-0.0804214
71.2,1.44666,3.74741,-0.0817431
73.8,1.54841,3.9293,-0.0856486
76.4,1.64881,4.10753,-0.0905817
79,1.74844,4.24743,-0.0917837
81.6,1.84698,4.39232,-0.0938824
84.2,1.94373,4.49918,-0.0991128
86.8,2.03929,4.5837,-0.101764
89.4,2.1346,4.64161,-0.106769
92,2.22761,4.66064,-0.109998
94.6,2.31958,4.66624,-0.112643
97.2,2.4118,4.62688,-0.119933
99.8,2.50115,4.59083,-0.12472
102.4,2.59185,4.51217,-0.127073
105,2.68151,4.42746,-0.130537
107.6,2.76981,4.32551,-0.131731
110.2,2.85778,4.2383,-0.135566
112.8,2.94647,4.12672,-0.135808
115.4,3.03371,4.03266,-0.135777
118,3.12109,3.9268,-0.137757
120.6,3.20775,3.83366,-0.13843
123.2,3.29351,3.75129,-0.13843
125.8,3.37918,3.65146,-0.14113
128.4,3.46443,3.53958,-0.145527
131,3.54927,3.45909,-0.145125
133.6,3.63355,3.40568,-0.144797
136.2,3.717,3.35129,-0.145119
138.8,3.80094,3.31941,-0.144436
141.4,3.88321,3.30082,-0.145251
144,3.96576,3.29977,-0.145135
146.6,4.04795,3.31301,-0.145487
149.2,4.13075,3.33525,-0.145171
151.8,4.21217,3.36947,-0.143819
154.4,4.29394,3.39585,-0.142904
157,4.37522,3.4468,-0.141167
159.6,4.45655,3.47427,-0.142486
162.2,4.53722,3.49776,-0.146197
164.8,4.61782,3.52326,-0.149516
167.4,4.69885,3.55144,-0.149577
170,4.77932,3.58126,-0.147217
172.6,4.85927,3.61623,-0.147198
175.2,4.9394,3.65589,-0.147334
177.8,5.01926,3.68389,-0.15308
180.4,5.09867,3.69966,-0.153642
183,5.17813,3.73416,-0.15238
185.6,5.2571,3.76077,-0.151059
188.2,5.33605,3.79189,-0.15106
190.8,5.4144,3.81032,-0.149733
193.4,5.49268,3.8317,-0.152307
196,5.57121,3.84395,-0.15369
198.6,5.64919,3.86613,-0.153658
201.2,5.72686,3.873,-0.15579
203.8,5.80479,3.88765,-0.15604
206.4,5.88243,3.89588,-0.15501
209,5.96021,3.90842,-0.155018
211.6,6.03752,3.90984,-0.155004
214.2,6.1152,3.9079,-0.156001
216.8,6.19243,3.90965,-0.15732
219.4,6.26972,3.90213,-0.158247
222,6.34695,3.91333,-0.161276
224.6,6.42395,3.89343,-0.161556
227.2,6.50116,3.88104,-0.164131
229.8,6.57783,3.85817,-0.169218
232.4,6.65497,3.84493,-0.173747
235,6.73196,3.8254,-0.176691
237.6,6.80853,3.7963,-0.176195
240.2,6.88532,3.79177,-0.178822
242.8,6.96229,3.76108,-0.183568
245.4,7.03866,3.75227,-0.189409
248,7.11583,3.81658,-0.197058
250.6,7.19434,4.26815,-0.198915
253.2,7.27213,4.62455,-0.203278
255.8,7.34821,4.46776,-0.210161
258.4,7.4251,4.40635,-0.215536
261,7.50107,4.18471,-0.222885
263.6,7.57711,3.9344,-0.22972
266.2,7.65333,3.78172,-0.235916
268.8,7.72938,3.68114,-0.244183
271.4,7.8057,3.6196,-0.25372
274,7.88229,3.57453,-0.258027
276.6,7.95858,3.5146,-0.262107
279.2,8.03522,3.47138,-0.267518
281.8,8.11181,3.41954,-0.275453
284.4,8.18819,3.34488,-0.281618
287,8.26443,3.23665,-0.289718
289.6,8.34066,3.12164,-0.294845
292.2,8.41711,2.98165,-0.302181
294.8,8.49336,2.80211,-0.314691
297.4,8.56966,2.60319,-0.322888
300,8.64577,2.37686,-0.326698
302.6,8.72164,2.10649,-0.335809
305.2,8.79708,1.78473,-0.3463
307.8,8.87265,1.35819,-0.35841
310.4,8.94708,0.743577,-0.370963
313,9.0214,-0.122313,-0.39058
315.6,9.09404,-1.37023,-0.408942
318.2,9.16502,-3.02124,-0.441305
320.8,9.23695,-4.51753,-0.494766
323.4,9.31252,-4.66699,-0.59119
326,9.39271,-3.42205,-0.737125
328.6,9.47383,-2.02517,-0.904828
331.2,9.55382,-1.05964,-1.0728
333.8,9.63279,-0.559826,-1.22643
336.4,9.71139,-0.278304,-1.36562
339,9.79039,0.146029,-1.47208
341.6,9.8696,0.818119,-1.54034
344.2,9.95057,1.52025,-1.57877
346.8,10.0303,1.99352,-1.60041
349.4,10.1092,2.20912,-1.61645
352,10.1875,2.28751,-1.62816
354.6,10.2657,2.28815,-1.63731
357.2,10.3441,2.25088,-1.64613
359.8,10.4224,2.21197,-1.65428
362.4,10.5005,2.17923,-1.65968
365,10.5789,2.13663,-1.66757
367.6,10.6571,2.09064,-1.67617
370.2,10.7355,2.06518,-1.68639
372.8,10.814,2.04009,-1.69346
375.4,10.8927,2.02114,-1.70159
378,10.9715,2.01903,-1.71201
380.6,11.0504,2.02725,-1.72019
383.2,11.1291,2.03934,-1.73042
385.8,11.2083,2.06635,-1.73792
388.4,11.2876,2.13937,-1.74822
391,11.3668,2.21763,-1.75992
393.6,11.4467,2.29986,-1.77137
396.2,11.5258,2.39277,-1.78172
398.8,11.6055,2.48371,-1.79408
401.4,11.6854,2.57355,-1.80741
404,11.7644,2.63436,-1.81909
406.6,11.8449,2.69496,-1.83022
409.2,11.9243,2.71382,-1.844
411.8,12.004,2.70061,-1.85742
414.4,12.0831,2.66424,-1.87006
417,12.1637,2.58813,-1.88481
419.6,12.2432,2.51693,-1.89743
422.2,12.3231,2.41918,-1.90783
424.8,12.4024,2.31008,-1.92061
427.4,12.4827,2.19091,-1.93198
430,12.5621,2.05652,-1.94325
432.6,12.6424,1.94247,-1.95319
435.2,12.7225,1.84387,-1.96298
437.8,12.8026,1.77675,-1.97467
440.4,12.8829,1.72146,-1.98535
443,12.9635,1.68857,-1.9945
445.6,13.044,1.67383,-2.00481
448.2,13.1245,1.65769,-2.01704
450.8,13.2053,1.65672,-2.02797
453.4,13.2861,1.66078,-2.03711
456,13.367,1.67167,-2.04829
458.6,13.4485,1.68252,-2.05741
461.2,13.5296,1.69924,-2.06718
463.8,13.6107,1.70444,-2.075
466.4,13.692,1.72054,-2.08294
469,13.7736,1.73745,-2.09272
471.6,13.8549,1.74235,-2.09994
474.2,13.9363,1.7656,-2.10826
476.8,14.018,1.77152,-2.11848
479.4,14.0996,1.78094,-2.12651
482,14.1815,1.79866,-2.1392
484.6,14.2634,1.80937,-2.14721
487.2,14.3455,1.82454,-2.15546
489.8,14.4276,1.84493,-2.1642
492.4,14.5091,1.86047,-2.17138
495,14.5917,1.87326,-2.17672
497.6,14.6732,1.89671,-2.1835
500.2,14.7558,1.90812,-2.19285
502.8,14.838,1.92962,-2.20073
505.4,14.9207,1.95874,-2.20527
508,15.0034,1.99512,-2.20807
510.6,15.0861,2.02916,-2.21664
513.2,15.1679,2.04179,-2.22247
515.8,15.2513,2.0655,-2.22796
518.4,15.3341,2.09429,-2.23128
521,15.4169,2.12795,-2.23516
523.6,15.4996,2.14888,-2.24148
526.2,15.583,2.18516,-2.24842
528.8,15.6655,2.21433,-2.25217
531.4,15.7488,2.23829,-2.25722
534,15.8318,2.26867,-2.26467
536.6,15.9148,2.29086,-2.2681
539.2,15.998,2.31779,-2.27621
541.8,16.0815,2.33397,-2.28243
544.4,16.1647,2.35617,-2.28987
547,16.2471,2.36111,-2.29265
549.6,16.3305,2.37546,-2.29633
552.2,16.4144,2.38076,-2.2973
554.8,16.4975,2.37882,-2.29944
557.4,16.5811,2.37859,-2.30781
560,16.6645,2.3692,-2.3129
562.6,16.7479,2.3801,-2.3201
565.2,16.8316,2.36907,-2.32342
567.8,16.915,2.3644,-2.32975
570.4,16.9978,2.34913,-2.33191
573,17.082,2.34985,-2.33458
575.6,17.1657,2.34212,-2.33973
578.2,17.2498,2.34431,-2.3422
580.8,17.3332,2.33663,-2.3438
583.4,17.4167,2.32135,-2.34518
586,17.501,2.31091,-2.35008
588.6,17.5853,2.29417,-2.35837
591.2,17.6693,2.28483,-2.36463
593.8,17.7534,2.27312,-2.3677
596.4,17.8374,2.26092,-2.36909
599,17.9218,2.2583,-2.37034
601.6,18.0061,2.23769,-2.37179
604.2,18.0904,2.2368,-2.37306
606.8,18.1749,2.23412,-2.37459
609.4,18.2592,2.22912,-2.37839
612,18.3436,2.23024,-2.37768
614.6,18.4283,2.22445,-2.38243
617.2,18.5123,2.21997,-2.38622
619.8,18.5975,2.22232,-2.38836
622.4,18.6821,2.22215,-2.39128
625,18.7669,2.2167,-2.39634
627.6,18.8516,2.21597,-2.40117
630.2,18.9363,2.2102,-2.40475
632.8,19.0203,2.21349,-2.40472
635.4,19.1059,2.20724,-2.40526
638,19.1907,2.18788,-2.40612
640.6,19.2756,2.17714,-2.40742
643.2,19.3604,2.16509,-2.40752
645.8,19.4453,2.17248,-2.40622
648.4,19.5302,2.16596,-2.40753
651,19.6152,2.15246,-2.41103
653.6,19.7004,2.14422,-2.41408
656.2,19.7853,2.13496,-2.41781
658.8,19.8703,2.12049,-2.42174
661.4,19.9555,2.11555,-2.42859
664,20.0397,2.09472,-2.43055
666.6,20.1251,2.07692,-2.4329
669.2,20.2104,2.07497,-2.433
671.8,20.2957,2.05357,-2.43732
674.4,20.3805,2.0427,-2.44125
677,20.4657,2.03115,-2.44277
679.6,20.5509,2.01695,-2.44127
682.2,20.6363,1.99994,-2.44329
684.8,20.7212,1.9818,-2.44401
687.4,20.8064,1.96236,-2.44674
690,20.8916,1.94052,-2.44939
692.6,20.9769,1.92326,-2.45153
695.2,21.0625,1.90327,-2.45452
697.8,21.1475,1.88345,-2.45583
700.4,21.2331,1.86695,-2.45519
703,21.3187,1.85541,-2.45548
705.6,21.4042,1.83542,-2.45682
708.2,21.4901,1.822,-2.4604
710.8,21.5755,1.79774,-2.46384
713.4,21.6608,1.77973,-2.46392
716,21.7467,1.75798,-2.46658
718.6,21.8326,1.7216,-2.46994
721.2,21.9184,1.70339,-2.47089
723.8,22.0041,1.68558,-2.4736
726.4,22.0902,1.64756,-2.47647
729,22.1756,1.60893,-2.47791
731.6,22.261,1.57007,-2.47802
734.2,22.3477,1.5379,-2.48134
736.8,22.4336,1.49761,-2.48629
739.4,22.5196,1.45484,-2.48702
742,22.6059,1.42367,-2.48701
744.6,22.6919,1.39104,-2.48762
747.2,22.7779,1.36088,-2.48901
749.8,22.8641,1.33385,-2.49182
752.4,22.9502,1.29134,-2.49547
755,23.0367,1.27033,-2.49839
757.6,23.1227,1.23842,-2.49985
760.2,23.2087,1.21952,-2.50081
762.8,23.2948,1.18045,-2.50243
765.4,23.3806,1.15387,-2.50128
768,23.4674,1.12877,-2.50258
770.6,23.5536,1.10412,-2.5048
773.2,23.6401,1.07902,-2.50705
775.8,23.7264,1.05821,-2.51135
778.4,23.8125,1.02535,-2.51183
781,23.8987,0.987827,-2.5171
783.6,23.985,0.955099,-2.51728
786.2,24.0713,0.919207,-2.51998
788.8,24.1582,0.894135,-2.52127
790,24.1977,0.882877,-2.52127