File: 01_Data/Helmet_Flap/STA/N2/30K_min/Helmet_Flap_STA_N2_30KData_250516_R2.csv
Temp./C,Time/min,DSC/(mW/mg),Mass loss/mg
40.0,0.0,1.43592,-0.0767339
42.6,0.156537,1.70906,-0.0796786
45.2,0.300326,1.95951,-0.0805947
47.8,0.432786,2.19459,-0.082459
50.4,0.559306,2.43361,-0.084497
53,0.680221,2.65479,-0.0867127
55.6,0.79727,2.8946,-0.0875288
58.2,0.910991,3.11499,-0.0905012
60.8,1.02192,3.35171,-0.0924965
63.4,1.12961,3.58622,-0.0970957
66,1.23621,3.82437,-0.0994175
68.6,1.34,4.05414,-0.10416
71.2,1.4437,4.27135,-0.106394
73.8,1.54581,4.47232,-0.110773
76.4,1.64586,4.65961,-0.116321
79,1.74562,4.8277,-0.119264
81.6,1.84411,4.97027,-0.122522
84.2,1.93981,5.07615,-0.126532
86.8,2.0364,5.16638,-0.131615
89.4,2.13086,5.22188,-0.135693
92,2.22334,5.23775,-0.13949
94.6,2.31577,5.22138,-0.143653
97.2,2.40752,5.20352,-0.147512
99.8,2.49669,5.15185,-0.150175
102.4,2.58755,5.10628,-0.150972
105,2.6767,5.02845,-0.154718
107.6,2.76516,4.94089,-0.157846
110.2,2.85312,4.8403,-0.159349
112.8,2.94066,4.74971,-0.162037
115.4,3.02807,4.64489,-0.164679
118,3.11504,4.54576,-0.164816
120.6,3.20124,4.45429,-0.167301
123.2,3.28727,4.37723,-0.16862
125.8,3.37245,4.25571,-0.1692
128.4,3.45712,4.15881,-0.169936
131,3.54152,4.08612,-0.17126
133.6,3.62498,4.02927,-0.17126
136.2,3.7094,3.98567,-0.170961
138.8,3.79275,3.95424,-0.171944
141.4,3.87575,3.92676,-0.173571
144,3.9582,3.91631,-0.173563
146.6,4.04003,3.91137,-0.174887
149.2,4.12224,3.94308,-0.174896
151.8,4.2036,3.96264,-0.17357
154.4,4.28454,3.99632,-0.17357
157,4.36601,4.03626,-0.173522
159.6,4.44692,4.07914,-0.176209
162.2,4.52756,4.12417,-0.176201
164.8,4.60819,4.15839,-0.17588
167.4,4.68864,4.20601,-0.17588
170,4.76868,4.23473,-0.175872
172.6,4.84885,4.2808,-0.17719
175.2,4.92857,4.31336,-0.176529
177.8,5.00774,4.35813,-0.17784
180.4,5.08731,4.39873,-0.177496
183,5.16645,4.43344,-0.177199
185.6,5.2454,4.4814,-0.178505
188.2,5.32344,4.51698,-0.17852
190.8,5.40206,4.54578,-0.177422
193.4,5.48023,4.57435,-0.17884
196,5.55865,4.61481,-0.178843
198.6,5.63662,4.63143,-0.18015
201.2,5.71448,4.66808,-0.180153
203.8,5.792,4.68827,-0.18149
206.4,5.86987,4.70824,-0.18248
209,5.94726,4.72484,-0.18305
211.6,6.02466,4.72498,-0.183777
214.2,6.10224,4.75407,-0.183765
216.8,6.1794,4.75495,-0.185065
219.4,6.25691,4.76705,-0.187294
222,6.33363,4.76947,-0.188894
224.6,6.41125,4.75407,-0.189091
227.2,6.48807,4.75759,-0.191683
229.8,6.56562,4.74473,-0.194435
232.4,6.64243,4.72511,-0.196132
235,6.71963,4.71165,-0.198953
237.6,6.79631,4.69843,-0.202121
240.2,6.8733,4.67575,-0.205478
242.8,6.95002,4.65337,-0.210202
245.4,7.02698,4.63987,-0.21431
248,7.10384,4.70249,-0.21852
250.6,7.18229,5.20709,-0.223023
253.2,7.26036,5.55683,-0.228069
255.8,7.3364,5.35541,-0.232733
258.4,7.41288,5.30576,-0.239067
261,7.48878,5.05615,-0.245992
263.6,7.56449,4.80533,-0.252704
266.2,7.64056,4.66929,-0.259283
268.8,7.71673,4.58118,-0.265759
271.4,7.79339,4.5208,-0.271972
274,7.86973,4.48543,-0.278279
276.6,7.94601,4.45098,-0.284967
279.2,8.02278,4.3835,-0.290149
281.8,8.09896,4.34496,-0.297462
284.4,8.17543,4.25866,-0.304579
287,8.25203,4.16692,-0.310139
289.6,8.32791,4.05295,-0.317692
292.2,8.40455,3.90463,-0.325459
294.8,8.48027,3.73638,-0.332389
297.4,8.55659,3.52301,-0.342644
300,8.63262,3.27963,-0.351267
302.6,8.70833,3.01028,-0.359584
305.2,8.78398,2.66248,-0.370249
307.8,8.85923,2.20668,-0.381017
310.4,8.93403,1.55835,-0.394094
313,9.00804,0.640836,-0.407827
315.6,9.08034,-0.676891,-0.428773
318.2,9.15094,-2.40819,-0.458788
320.8,9.22262,-3.95793,-0.506346
323.4,9.29859,-4.04879,-0.598053
326,9.37927,-2.75118,-0.739035
328.6,9.46024,-1.26131,-0.905659
331.2,9.54014,-0.304951,-1.06832
333.8,9.61943,0.206884,-1.22006
336.4,9.69774,0.483596,-1.35645
339,9.77696,0.964496,-1.464
341.6,9.85713,1.72686,-1.53531
344.2,9.93741,2.47058,-1.57522
346.8,10.0172,2.96869,-1.59516
349.4,10.0962,3.20573,-1.6106
352,10.1749,3.27545,-1.61875
354.6,10.253,3.27245,-1.62688
357.2,10.3313,3.22981,-1.63574
359.8,10.4095,3.19198,-1.64448
362.4,10.4877,3.12736,-1.65121
365,10.5661,3.07261,-1.65859
367.6,10.6443,3.0419,-1.66758
370.2,10.7226,3.00757,-1.67515
372.8,10.8014,2.97769,-1.68466
375.4,10.8801,2.96088,-1.69297
378,10.9588,2.96144,-1.70105
380.6,11.0377,2.97766,-1.71047
383.2,11.1167,2.99651,-1.71754
385.8,11.1957,3.04403,-1.72873
388.4,11.2749,3.10534,-1.73917
391,11.3542,3.17413,-1.75138
393.6,11.4337,3.26864,-1.76238
396.2,11.5136,3.36515,-1.77407
398.8,11.5927,3.47486,-1.78626
401.4,11.6729,3.56382,-1.79938
404,11.7527,3.64438,-1.81172
406.6,11.8319,3.69919,-1.82336
409.2,11.9121,3.71846,-1.83682
411.8,11.9918,3.6916,-1.84882
414.4,12.0712,3.66234,-1.86376
417,12.1513,3.60439,-1.87498
419.6,12.2309,3.53365,-1.88554
422.2,12.3104,3.44203,-1.89642
424.8,12.39,3.32469,-1.90804
427.4,12.4701,3.19586,-1.91802
430,12.5495,3.06383,-1.9298
432.6,12.6293,2.93655,-1.94003
435.2,12.7093,2.85615,-1.95053
437.8,12.7895,2.77749,-1.9616
440.4,12.8699,2.71637,-1.97295
443,12.9502,2.66247,-1.98321
445.6,13.0304,2.63663,-1.99344
448.2,13.1112,2.61335,-2.00297
450.8,13.1921,2.63106,-2.014
453.4,13.273,2.61637,-2.02415
456,13.3541,2.628,-2.03393
458.6,13.4353,2.62445,-2.04417
461.2,13.5165,2.63886,-2.05385
463.8,13.5976,2.65409,-2.06363
466.4,13.679,2.66442,-2.07198
469,13.7605,2.67262,-2.0809
471.6,13.842,2.6766,-2.0896
474.2,13.9234,2.6779,-2.09868
476.8,14.0044,2.67975,-2.10744
479.4,14.0868,2.70525,-2.11626
482,14.1687,2.70231,-2.12392
484.6,14.2497,2.71713,-2.12995
487.2,14.3321,2.73124,-2.13823
489.8,14.4141,2.74863,-2.14597
492.4,14.4962,2.75661,-2.15437
495,14.5782,2.78414,-2.1624
497.6,14.6606,2.80096,-2.16929
500.2,14.7426,2.8196,-2.17618
502.8,14.8252,2.83095,-2.18072
505.4,14.9071,2.86299,-2.18807
508,14.9898,2.89064,-2.19309
510.6,15.0722,2.91512,-2.19912
513.2,15.1547,2.93818,-2.20507
515.8,15.2372,2.9642,-2.21093
518.4,15.3203,2.98941,-2.21675
521,15.4027,3.01749,-2.22084
523.6,15.4855,3.0374,-2.22737
526.2,15.5686,3.0608,-2.23128
528.8,15.6516,3.07682,-2.2363
531.4,15.7345,3.10212,-2.24195
534,15.8174,3.11904,-2.2474
536.6,15.9004,3.13155,-2.25415
539.2,15.9836,3.14024,-2.25777
541.8,16.0667,3.15644,-2.26296
544.4,16.1501,3.15779,-2.26794
547,16.2332,3.15903,-2.27258
549.6,16.3167,3.16669,-2.27854
552.2,16.4,3.15962,-2.28447
554.8,16.4831,3.15618,-2.28895
557.4,16.5664,3.14678,-2.29309
560,16.65,3.12518,-2.29774
562.6,16.7333,3.11323,-2.30208
565.2,16.8168,3.09163,-2.30661
567.8,16.9003,3.07386,-2.31117
570.4,16.9838,3.05004,-2.31456
573,17.0675,3.02336,-2.31724
575.6,17.1509,2.9823,-2.32125
578.2,17.2347,2.96184,-2.32641
580.8,17.3184,2.9354,-2.33061
583.4,17.4021,2.89894,-2.33202
586,17.4862,2.87731,-2.33652
588.6,17.5701,2.83799,-2.34035
591.2,17.6544,2.81159,-2.34391
593.8,17.7382,2.79057,-2.3455
596.4,17.8224,2.7661,-2.34676
599,17.9066,2.73713,-2.35122
601.6,17.991,2.71974,-2.35452
604.2,18.0754,2.70465,-2.35556
606.8,18.1598,2.68107,-2.35826
609.4,18.2444,2.661,-2.36239
612,18.3286,2.63734,-2.36395
614.6,18.4133,2.62325,-2.36673
617.2,18.4979,2.59842,-2.36884
619.8,18.5823,2.58965,-2.37112
622.4,18.6668,2.56555,-2.37538
625,18.7515,2.55223,-2.37682
627.6,18.836,2.52775,-2.3796
630.2,18.9205,2.51052,-2.382
632.8,19.0052,2.47897,-2.38447
635.4,19.09,2.45947,-2.38764
638,19.1747,2.43318,-2.38798
640.6,19.2596,2.41697,-2.39151
643.2,19.3442,2.38008,-2.3934
645.8,19.4291,2.3502,-2.396
648.4,19.5128,2.32302,-2.39732
651,19.5984,2.29702,-2.39875
653.6,19.6836,2.2607,-2.40211
656.2,19.7681,2.22321,-2.40304
658.8,19.8536,2.18465,-2.40564
661.4,19.9383,2.1453,-2.40842
664,20.0233,2.10566,-2.40999
666.6,20.1081,2.05815,-2.41358
669.2,20.1932,2.0237,-2.41522
671.8,20.2777,1.99234,-2.41653
674.4,20.3637,1.94565,-2.42055
677,20.4486,1.89093,-2.42093
679.6,20.5337,1.85316,-2.42317
682.2,20.6189,1.81103,-2.42493
684.8,20.7042,1.76146,-2.42806
687.4,20.7894,1.71255,-2.42928
690,20.8745,1.66787,-2.43021
692.6,20.9599,1.62079,-2.43325
695.2,21.0451,1.569,-2.4357
697.8,21.1308,1.51737,-2.43861
700.4,21.2162,1.46332,-2.43992
703,21.3015,1.41946,-2.44123
705.6,21.3869,1.37879,-2.4439
708.2,21.4721,1.31378,-2.44561
710.8,21.5576,1.26199,-2.44833
713.4,21.6432,1.21277,-2.45079
716,21.7287,1.15552,-2.45345
718.6,21.8143,1.1088,-2.45324
721.2,21.8999,1.05556,-2.45492
723.8,21.9856,1.00101,-2.45661
726.4,22.0711,0.940968,-2.45922
729,22.1568,0.894757,-2.46056
731.6,22.2426,0.838088,-2.46319
734.2,22.3283,0.790135,-2.46452
736.8,22.4146,0.737395,-2.46712
739.4,22.5006,0.702727,-2.47014
742,22.5862,0.658855,-2.47175
744.6,22.6724,0.616124,-2.47309
747.2,22.7585,0.564558,-2.47439
749.8,22.8446,0.525732,-2.47687
752.4,22.9305,0.47463,-2.47886
755,23.0167,0.418891,-2.48065
757.6,23.1028,0.383946,-2.48147
760.2,23.1883,0.332784,-2.48412
762.8,23.2753,0.288406,-2.48549
765.4,23.361,0.242352,-2.48682
768,23.4473,0.196751,-2.48971
770.6,23.5334,0.150371,-2.48936
773.2,23.6192,0.114027,-2.49195
775.8,23.7059,0.074576,-2.49346
778.4,23.7921,0.0383606,-2.49458
781,23.8778,-0.00526449,-2.49688
783.6,23.9648,-0.0429909,-2.49725
786.2,24.0511,-0.0732532,-2.49988
788.8,24.1373,-0.100775,-2.50155
790,24.1772,-0.115177,-2.50298