File: 01_Data/Helmet_Flap/STA/N2/30K_min/Helmet_Flap_STA_N2_30KData_250529_R4.csv
Temp./C,Time/min,DSC/(mW/mg),Mass loss/mg
40.0,0.0,1.64026,-0.0976773
42.6,0.157743,1.95202,-0.0997616
45.2,0.302197,2.22175,-0.102425
47.8,0.43652,2.49025,-0.106687
50.4,0.563821,2.7467,-0.105358
53,0.685338,3.01099,-0.108481
55.6,0.802957,3.26094,-0.113578
58.2,0.916153,3.55312,-0.115436
60.8,1.02714,3.81103,-0.120825
63.4,1.13613,4.08455,-0.123294
66,1.24266,4.36369,-0.126582
68.6,1.34754,4.63978,-0.131017
71.2,1.451,4.89423,-0.133665
73.8,1.55326,5.12474,-0.140253
76.4,1.65405,5.33164,-0.144904
79,1.75368,5.53211,-0.149587
81.6,1.8518,5.70262,-0.1556
84.2,1.94878,5.81549,-0.159793
86.8,2.04477,5.91354,-0.163857
89.4,2.13877,5.98577,-0.170071
92,2.23251,6.02669,-0.174711
94.6,2.32444,6.0352,-0.180058
97.2,2.41554,6.01614,-0.184328
99.8,2.50663,5.96699,-0.187628
102.4,2.59606,5.89625,-0.195383
105,2.68545,5.81619,-0.196725
107.6,2.77392,5.69747,-0.200676
110.2,2.86163,5.59478,-0.204619
112.8,2.94899,5.47156,-0.207258
115.4,3.03643,5.3437,-0.211264
118,3.12297,5.22082,-0.21255
120.6,3.20964,5.10883,-0.214783
123.2,3.29529,5.00632,-0.21649
125.8,3.38054,4.87166,-0.21649
128.4,3.46544,4.75487,-0.217816
131,3.54958,4.66248,-0.219213
133.6,3.63379,4.60895,-0.220444
136.2,3.71724,4.53989,-0.22176
138.8,3.80035,4.49234,-0.222829
141.4,3.88321,4.478,-0.224621
144,3.9655,4.47315,-0.224887
146.6,4.04794,4.48805,-0.22319
149.2,4.12982,4.51252,-0.223198
151.8,4.2112,4.54144,-0.230275
154.4,4.29265,4.58657,-0.224715
157,4.37347,4.63423,-0.22406
159.6,4.45493,4.69423,-0.224874
162.2,4.53525,4.75049,-0.225458
164.8,4.61576,4.79775,-0.226811
167.4,4.69685,4.8504,-0.22682
170,4.77734,4.88936,-0.228132
172.6,4.85742,4.948,-0.229073
175.2,4.9371,4.99511,-0.230761
177.8,5.0166,5.04218,-0.229449
180.4,5.09514,5.08355,-0.22946
183,5.17514,5.12093,-0.23076
185.6,5.25393,5.17942,-0.230754
188.2,5.33282,5.21742,-0.23208
190.8,5.41109,5.25312,-0.232081
193.4,5.48976,5.29293,-0.233404
196,5.56757,5.33877,-0.23471
198.6,5.64537,5.38335,-0.234816
201.2,5.72346,5.40358,-0.234711
203.8,5.80138,5.4394,-0.236035
206.4,5.87905,5.47234,-0.238767
209,5.95665,5.50302,-0.239991
211.6,6.03408,5.52984,-0.238676
214.2,6.1115,5.57249,-0.240858
216.8,6.18901,5.5864,-0.242607
219.4,6.26633,5.60503,-0.243059
222,6.34353,5.62658,-0.244381
224.6,6.4209,5.64964,-0.245721
227.2,6.49781,5.663,-0.24842
229.8,6.57496,5.68942,-0.251203
232.4,6.65174,5.70199,-0.253572
235,6.72792,5.7013,-0.255602
237.6,6.8057,5.69949,-0.259166
240.2,6.88223,5.68506,-0.263558
242.8,6.9592,5.64892,-0.265735
245.4,7.03523,5.62214,-0.270711
248,7.11245,5.64904,-0.275917
250.6,7.19016,6.02658,-0.281766
253.2,7.26761,6.31661,-0.286704
255.8,7.34382,6.18646,-0.292421
258.4,7.42063,6.15211,-0.299421
261,7.49578,5.94279,-0.305528
263.6,7.57218,5.73018,-0.311531
266.2,7.64804,5.59596,-0.31916
268.8,7.72446,5.507,-0.325745
271.4,7.80076,5.459,-0.333584
274,7.87696,5.42502,-0.341392
276.6,7.95325,5.37102,-0.348744
279.2,8.02948,5.30816,-0.357234
281.8,8.10602,5.23955,-0.365744
284.4,8.18228,5.13636,-0.37368
287,8.25846,5.01587,-0.382173
289.6,8.33466,4.86797,-0.39201
292.2,8.41047,4.68715,-0.399387
294.8,8.48642,4.44924,-0.408171
297.4,8.56208,4.19393,-0.418048
300,8.63783,3.90198,-0.428766
302.6,8.71334,3.56605,-0.439268
305.2,8.78859,3.10477,-0.449862
307.8,8.86274,2.41529,-0.461913
310.4,8.93589,1.40356,-0.477741
313,9.00794,0.00485145,-0.497148
315.6,9.07803,-1.84795,-0.526286
318.2,9.14834,-3.77098,-0.572978
320.8,9.22326,-4.15963,-0.659786
323.4,9.3033,-2.88114,-0.788561
326,9.38469,-1.29443,-0.921599
328.6,9.4652,-0.108154,-1.03846
331.2,9.54495,0.660748,-1.13905
333.8,9.62383,1.21653,-1.22482
336.4,9.70321,1.80941,-1.29848
339,9.78323,2.55379,-1.35165
341.6,9.86341,3.294,-1.38586
344.2,9.94252,3.85936,-1.40758
346.8,10.0223,4.20802,-1.42255
349.4,10.1006,4.39837,-1.43096
352,10.179,4.46401,-1.44099
354.6,10.2576,4.46933,-1.44698
357.2,10.3353,4.42997,-1.4542
359.8,10.4134,4.40014,-1.46142
362.4,10.4918,4.36002,-1.46703
365,10.5701,4.32457,-1.47552
367.6,10.6487,4.29076,-1.48308
370.2,10.7268,4.2811,-1.49013
372.8,10.8056,4.27692,-1.49603
375.4,10.8842,4.28293,-1.5049
378,10.9631,4.29118,-1.51315
380.6,11.0424,4.3281,-1.51989
383.2,11.1215,4.39792,-1.52992
385.8,11.2009,4.47549,-1.53962
388.4,11.2805,4.58971,-1.54879
391,11.36,4.72619,-1.5592
393.6,11.4401,4.87599,-1.57148
396.2,11.5195,5.01831,-1.58445
398.8,11.5995,5.15219,-1.59718
401.4,11.6793,5.25335,-1.61047
404,11.7591,5.32801,-1.62302
406.6,11.8389,5.36088,-1.63572
409.2,11.9186,5.35166,-1.64764
411.8,11.9983,5.32181,-1.65934
414.4,12.0781,5.27937,-1.67024
417,12.1573,5.21083,-1.67994
419.6,12.2372,5.12931,-1.69331
422.2,12.3162,5.00599,-1.70402
424.8,12.3959,4.89315,-1.71552
427.4,12.4765,4.78187,-1.72707
430,12.5562,4.6717,-1.73816
432.6,12.6361,4.57811,-1.75317
435.2,12.7163,4.49619,-1.76639
437.8,12.7965,4.43427,-1.77706
440.4,12.8762,4.39323,-1.78997
443,12.9572,4.36235,-1.8028
445.6,13.0378,4.33594,-1.81622
448.2,13.119,4.33003,-1.82793
450.8,13.1995,4.30986,-1.83769
453.4,13.2804,4.31223,-1.84799
456,13.3614,4.30017,-1.85864
458.6,13.4425,4.2864,-1.87016
461.2,13.5234,4.27926,-1.87923
463.8,13.6044,4.25659,-1.88719
466.4,13.6858,4.24041,-1.89676
469,13.7663,4.22105,-1.90626
471.6,13.8483,4.19857,-1.91579
474.2,13.9292,4.18214,-1.92423
476.8,14.0107,4.19134,-1.93406
479.4,14.0923,4.18063,-1.94199
482,14.1738,4.17428,-1.94861
484.6,14.2552,4.18208,-1.95746
487.2,14.3372,4.1943,-1.96607
489.8,14.4187,4.19853,-1.97333
492.4,14.5005,4.19593,-1.98023
495,14.5824,4.21088,-1.9876
497.6,14.6646,4.22382,-1.99564
500.2,14.7465,4.23899,-2.00344
502.8,14.8284,4.24256,-2.00972
505.4,14.9103,4.24987,-2.01708
508,14.9927,4.26122,-2.0238
510.6,15.0751,4.2693,-2.02776
513.2,15.1569,4.29289,-2.03499
515.8,15.2396,4.30018,-2.04078
518.4,15.3219,4.31807,-2.0476
521,15.4042,4.32119,-2.05223
523.6,15.4871,4.34513,-2.05956
526.2,15.5697,4.36045,-2.06507
528.8,15.6524,4.36356,-2.07157
531.4,15.7349,4.37576,-2.07853
534,15.8179,4.3924,-2.08363
536.6,15.9008,4.39665,-2.08898
539.2,15.9833,4.39145,-2.09588
541.8,16.0661,4.39747,-2.1027
544.4,16.1495,4.38241,-2.10854
547,16.232,4.36327,-2.11405
549.6,16.3152,4.33978,-2.12045
552.2,16.3985,4.31391,-2.12792
554.8,16.4817,4.27287,-2.1325
557.4,16.5651,4.22647,-2.13933
560,16.648,4.18781,-2.14455
562.6,16.7308,4.14184,-2.1497
565.2,16.8148,4.08576,-2.15412
567.8,16.8977,4.03864,-2.15863
570.4,16.9813,3.99465,-2.16466
573,17.0648,3.93597,-2.16907
575.6,17.1483,3.88807,-2.17344
578.2,17.2317,3.84683,-2.18008
580.8,17.3154,3.81238,-2.18368
583.4,17.3991,3.77256,-2.18728
586,17.4827,3.73813,-2.19181
588.6,17.5665,3.70646,-2.19488
591.2,17.6505,3.67644,-2.1996
593.8,17.7346,3.6494,-2.20299
596.4,17.8179,3.6194,-2.20715
599,17.9022,3.59528,-2.21072
601.6,17.9863,3.58369,-2.21299
604.2,18.0708,3.57017,-2.21573
606.8,18.1552,3.54651,-2.22146
609.4,18.2401,3.54369,-2.22574
612,18.3256,3.54587,-2.22709
614.6,18.4108,3.53697,-2.2301
617.2,18.496,3.53946,-2.23304
619.8,18.5812,3.53706,-2.23476
622.4,18.6664,3.52818,-2.23804
625,18.7524,3.51951,-2.24195
627.6,18.8375,3.52795,-2.24621
630.2,18.9231,3.52492,-2.24698
632.8,19.0085,3.52702,-2.25092
635.4,19.0943,3.52795,-2.25368
638,19.1793,3.52885,-2.25652
640.6,19.2648,3.53342,-2.25917
643.2,19.3502,3.52781,-2.26354
645.8,19.4357,3.52503,-2.26531
648.4,19.5212,3.51202,-2.26835
651,19.6062,3.51703,-2.26951
653.6,19.6918,3.52038,-2.27328
656.2,19.7772,3.52678,-2.27565
658.8,19.8626,3.52072,-2.27886
661.4,19.9479,3.50972,-2.28064
664,20.0332,3.51157,-2.28332
666.6,20.1186,3.5137,-2.28633
669.2,20.2038,3.51128,-2.28794
671.8,20.2893,3.51504,-2.28913
674.4,20.3739,3.5097,-2.2926
677,20.4588,3.50829,-2.29481
679.6,20.5444,3.50511,-2.2979
682.2,20.6302,3.51169,-2.30074
684.8,20.7148,3.50202,-2.30347
687.4,20.8006,3.50507,-2.30615
690,20.8859,3.50297,-2.30752
692.6,20.9713,3.50448,-2.31016
695.2,21.0569,3.49673,-2.31295
697.8,21.1417,3.48828,-2.31464
700.4,21.2279,3.49204,-2.31849
703,21.313,3.49267,-2.31931
705.6,21.3988,3.48027,-2.32187
708.2,21.4844,3.45867,-2.32471
710.8,21.5702,3.43898,-2.32811
713.4,21.6557,3.40877,-2.32882
716,21.7413,3.39885,-2.33341
718.6,21.8273,3.36475,-2.33527
721.2,21.913,3.33946,-2.33762
723.8,21.9989,3.31059,-2.3408
726.4,22.0846,3.27525,-2.34366
729,22.1704,3.2396,-2.34364
731.6,22.2563,3.20393,-2.3445
734.2,22.342,3.17205,-2.34814
736.8,22.4281,3.13201,-2.35271
739.4,22.5145,3.1062,-2.35266
742,22.6006,3.05421,-2.35432
744.6,22.6863,2.98652,-2.35737
747.2,22.7725,2.9344,-2.35984
749.8,22.8587,2.86021,-2.36276
752.4,22.9448,2.8171,-2.3637
755,23.0313,2.73198,-2.36775
757.6,23.1177,2.6766,-2.37082
760.2,23.2036,2.62215,-2.37296
762.8,23.2899,2.55836,-2.37533
765.4,23.3765,2.51414,-2.37658
768,23.4628,2.46886,-2.37944
770.6,23.5494,2.41616,-2.38197
773.2,23.636,2.36343,-2.38445
775.8,23.7221,2.30367,-2.38615
778.4,23.8087,2.25215,-2.38746
781,23.8944,2.19902,-2.39161
783.6,23.981,2.15463,-2.39234
786.2,24.068,2.10758,-2.3957
788.8,24.1545,2.06407,-2.39816
790,24.1943,2.05308,-2.39884