File: 02_Data/Polyester_Fabric/Cone/Polyester_Fabric_Cone_HF25Scalar_210324_R1.csv
LABORATORY,FSRI
TEST IDENT,Fabric
OPERATOR,Morrissey
MATERIAL,Polyester Microfiber Fabric
ORIENTATION,Horizontal
HEAT FLUX,25
SURF AREA,0.01
C FACTOR,0.0386052
SPEC HOLDER DIFF,-87.37
SPECIMEN MASS,1.93
SCAN TIME,0.25
O2 DELAY TIME,11
CO DELAY TIME,11
CO2 DELAY TIME,8
FLOW FACTOR,1
SCAN COUNT,1638
TIME TO IGN,240.75
END OF TEST SCAN,1158
END OF TEST TIME,289.5
TEST STATUS,1
PRE TEST CMT,test w/o retainer grid or frame
POST TEST CMT,the sample folded into itself towards the spark igniter.