File: 01_Data/UEBSS/STA/N2/30K_min/UEBSS_STA_N2_30KData_240405_R2.csv
Temp./C,Time/min,DSC/(mW/mg),Mass loss/mg
60.0,0.0,1.82637,-0.00415889
62.3,0.112919,2.07228,-0.004615
64.6,0.217435,2.28656,-0.00372866
66.9,0.316839,2.47097,-0.00246935
69.2,0.409132,2.62914,-0.00253374
71.5,0.50126,2.79018,-0.0017874
73.8,0.589012,2.90708,-0.00151222
76.1,0.675519,3.02243,-0.00315594
78.4,0.759535,3.11601,-0.00433851
80.7,0.842385,3.20103,-0.00307738
83,0.923077,3.27487,-0.00556981
85.3,1.00448,3.34715,-0.00591319
87.6,1.08381,3.42068,-0.0055547
89.9,1.16232,3.47466,-0.00718448
92.2,1.2395,3.54187,-0.00629678
94.5,1.31795,3.59075,-0.00753814
96.8,1.39507,3.64413,-0.00495882
99.1,1.47152,3.69569,-0.00493448
101.4,1.54763,3.74788,-0.00495003
103.7,1.62365,3.79282,-0.00492398
106,1.69956,3.83609,-0.00530026
108.3,1.77499,3.87827,-0.00573724
110.6,1.85101,3.92155,-0.00566992
112.9,1.9262,3.95487,-0.00658903
115.2,2.00179,3.99854,-0.00625987
117.5,2.0771,4.04375,-0.00622256
119.8,2.15231,4.08654,-0.00625465
122.1,2.2267,4.1159,-0.0075798
124.4,2.30197,4.15443,-0.00626143
126.7,2.37653,4.18264,-0.00626
129,2.45137,4.22824,-0.00626
131.3,2.52509,4.25607,-0.0075602
133.6,2.59915,4.28283,-0.00625937
135.9,2.67305,4.30837,-0.00626001
138.2,2.74669,4.33739,-0.00636059
140.5,2.82018,4.3744,-0.00763903
142.8,2.89326,4.39948,-0.00790088
145.1,2.9656,4.42593,-0.00789884
147.4,3.03778,4.46674,-0.00922029
149.7,3.11118,4.49983,-0.00922
152,3.18337,4.52985,-0.00921999
154.3,3.25504,4.57407,-0.00794331
156.6,3.32769,4.60928,-0.00724678
158.9,3.39976,4.64248,-0.00679552
161.2,3.47157,4.68246,-0.00658999
163.5,3.54363,4.71493,-0.00659
165.8,3.61485,4.7526,-0.00656963
168.1,3.68631,4.78522,-0.00789954
170.4,3.75769,4.8174,-0.00922014
172.7,3.82921,4.84032,-0.00692342
175,3.90042,4.8855,-0.00698267
177.3,3.97147,4.91379,-0.00955576
179.6,4.04276,4.9471,-0.00957559
181.9,4.11332,4.97949,-0.0108699
184.2,4.18394,5.02557,-0.01087
186.5,4.2547,5.05881,-0.0108377
188.8,4.32494,5.09565,-0.0115302
191.1,4.39529,5.13469,-0.0121895
193.4,4.46554,5.17894,-0.0135101
195.7,4.53566,5.19672,-0.0148197
198,4.60545,5.22677,-0.0154794
200.3,4.67557,5.26001,-0.0153198
202.6,4.74545,5.30663,-0.0151528
204.9,4.81511,5.34145,-0.01647
207.2,4.88508,5.37111,-0.0164718
209.5,4.95497,5.42353,-0.0191201
211.8,5.02483,5.47091,-0.0177152
214.1,5.09424,5.52808,-0.0177277
216.4,5.16399,5.59283,-0.0177285
218.7,5.23385,5.67176,-0.0191422
221,5.30355,5.77007,-0.0204292
223.3,5.37317,5.8887,-0.020382
225.6,5.44293,6.04279,-0.0230514
227.9,5.5135,6.25233,-0.0256885
230.2,5.5835,6.57113,-0.0264147
232.5,5.65501,7.0846,-0.0287319
234.8,5.72735,8.01383,-0.0313041
237.1,5.80081,9.06361,-0.0343543
239.4,5.87049,9.15081,-0.037572
241.7,5.9377,8.55943,-0.0408037
244,6.00569,8.04623,-0.0453442
246.3,6.07405,7.7966,-0.0494492
248.6,6.14325,7.74981,-0.0559995
250.9,6.21289,7.85561,-0.062163
253.2,6.28247,8.05865,-0.0699841
255.5,6.3528,8.35557,-0.0809981
257.8,6.4236,8.73629,-0.0902904
260.1,6.4945,9.16743,-0.100203
262.4,6.56548,9.67931,-0.11137
264.7,6.63645,10.2366,-0.125932
267,6.70786,10.8631,-0.143477
269.3,6.77987,11.5655,-0.16244
271.6,6.85216,12.3482,-0.183099
273.9,6.92474,13.201,-0.207505
276.2,6.99749,14.1285,-0.234363
278.5,7.07072,15.1216,-0.266368
280.8,7.14413,16.1584,-0.301768
283.1,7.2175,17.1581,-0.340796
285.4,7.29089,18.0986,-0.384911
287.7,7.36336,18.8437,-0.432021
290,7.43468,19.2634,-0.479856
292.3,7.5046,19.2142,-0.528848
294.6,7.57238,18.5571,-0.576324
296.9,7.63759,17.197,-0.619362
299.2,7.70064,15.3445,-0.657631
301.5,7.76337,13.3195,-0.690656
303.8,7.8256,11.4621,-0.718309
306.1,7.88974,9.7971,-0.740177
308.4,7.95358,8.45707,-0.759111
310.7,8.01918,7.40278,-0.773899
313,8.0854,6.59956,-0.787463
315.3,8.15244,6.03639,-0.798278
317.6,8.21979,5.62049,-0.80636
319.9,8.28796,5.32095,-0.817693
322.2,8.3561,5.12008,-0.825723
324.5,8.42482,4.96811,-0.834288
326.8,8.49313,4.87137,-0.84233
329.1,8.56232,4.78225,-0.852086
331.4,8.63143,4.71103,-0.862512
333.7,8.70089,4.66523,-0.872412
336,8.77036,4.62768,-0.879839
338.3,8.83996,4.60195,-0.888567
340.6,8.90984,4.55996,-0.89736
342.9,8.97936,4.52916,-0.907868
345.2,9.04886,4.49399,-0.916198
347.5,9.11901,4.46622,-0.927414
349.8,9.18902,4.43943,-0.93683
352.1,9.25926,4.423,-0.945414
354.4,9.3297,4.39935,-0.955041
356.7,9.39987,4.37197,-0.964959
359,9.47003,4.3573,-0.975187
361.3,9.54064,4.32712,-0.984241
363.6,9.61095,4.28801,-0.994313
365.9,9.68161,4.27091,-1.00303
368.2,9.75246,4.2423,-1.01282
370.5,9.82287,4.22237,-1.02095
372.8,9.89385,4.19524,-1.03322
375.1,9.96459,4.16318,-1.04179
377.4,10.0355,4.15997,-1.05116
379.7,10.1065,4.1265,-1.06025
382,10.1776,4.11173,-1.06915
384.3,10.2485,4.08633,-1.07702
386.6,10.3193,4.07196,-1.08622
388.9,10.3911,4.07804,-1.09516
391.2,10.4626,4.0603,-1.10206
393.5,10.5342,4.05189,-1.1088
395.8,10.6057,4.04924,-1.11596
398.1,10.6771,4.02602,-1.12092
400.4,10.749,4.01908,-1.12841
402.7,10.8208,3.98995,-1.1337
405,10.8925,3.97719,-1.14013
407.3,10.9642,3.95853,-1.14567
409.6,11.0362,3.94334,-1.15081
411.9,11.1081,3.91202,-1.15765
414.2,11.1801,3.89825,-1.1624
416.5,11.252,3.88582,-1.1697
418.8,11.3242,3.87468,-1.17756
421.1,11.3965,3.87915,-1.17978
423.4,11.4685,3.88822,-1.18351
425.7,11.5403,3.88522,-1.18664
428,11.6129,3.89344,-1.19004
430.3,11.6855,3.90702,-1.19509
432.6,11.7579,3.92612,-1.19891
434.9,11.8301,3.94901,-1.20418
437.2,11.9031,3.96546,-1.20878
439.5,11.9756,3.99633,-1.21224
441.8,12.0482,4.04245,-1.21851
444.1,12.1206,4.08524,-1.22523
446.4,12.1941,4.14344,-1.23304
448.7,12.2668,4.20902,-1.24003
451,12.34,4.28672,-1.24765
453.3,12.4131,4.35893,-1.25432
455.6,12.4861,4.45938,-1.26347
457.9,12.5593,4.55386,-1.27509
460.2,12.6332,4.66676,-1.28782
462.5,12.7066,4.77373,-1.30183
464.8,12.7804,4.91034,-1.32004
467.1,12.8539,5.06941,-1.33888
469.4,12.9278,5.26599,-1.36233
471.7,13.002,5.464,-1.38938
474,13.0754,5.66883,-1.41931
476.3,13.15,5.89033,-1.45312
478.6,13.2246,6.10543,-1.49083
480.9,13.2994,6.29672,-1.53285
483.2,13.3737,6.47658,-1.58109
485.5,13.4482,6.62281,-1.63719
487.8,13.5221,6.71542,-1.69573
490.1,13.5964,6.75282,-1.75753
492.4,13.6705,6.72933,-1.82092
494.7,13.7443,6.60905,-1.8914
497,13.8175,6.39045,-1.95758
499.3,13.8907,6.08582,-2.02564
501.6,13.9634,5.68414,-2.09004
503.9,14.0356,5.20578,-2.14824
506.2,14.1075,4.66394,-2.20352
508.5,14.1794,4.07236,-2.24762
510.8,14.2511,3.52253,-2.28365
513.1,14.3239,3.08237,-2.3126
515.4,14.3966,2.78218,-2.3299
517.7,14.4696,2.56604,-2.34162
520,14.5433,2.40399,-2.34888
522.3,14.6168,2.27676,-2.35347
524.6,14.6909,2.18449,-2.35701
526.9,14.7649,2.12181,-2.35975
529.2,14.8393,2.0791,-2.3608
531.5,14.9134,2.05233,-2.36089
533.8,14.9879,2.03872,-2.36322
536.1,15.0627,2.01822,-2.36526
538.4,15.1369,2.00442,-2.36594
540.7,15.2118,1.9994,-2.3656
543,15.2866,1.99068,-2.36594
545.3,15.3612,1.98929,-2.36602
547.6,15.4363,1.98936,-2.3672
549.9,15.511,1.98674,-2.3686
552.2,15.5859,2.00492,-2.36944
554.5,15.661,2.02167,-2.36857
556.8,15.7361,2.04692,-2.36857
559.1,15.8115,2.07422,-2.36989
561.4,15.8862,2.1047,-2.37045
563.7,15.9617,2.11152,-2.37263
566,16.0371,2.12818,-2.37384
568.3,16.1124,2.11971,-2.37385
570.6,16.1875,2.10209,-2.37252
572.9,16.2631,2.08966,-2.37252
575.2,16.3384,2.0719,-2.3737
577.5,16.414,2.04627,-2.3725
579.8,16.4898,2.01881,-2.37375
582.1,16.5652,1.99436,-2.37384
584.4,16.6406,1.958,-2.37229
586.7,16.7168,1.91611,-2.3711
589,16.7925,1.88957,-2.37098
591.3,16.8686,1.87078,-2.37374
593.6,16.9446,1.85568,-2.37503
595.9,17.0208,1.84137,-2.37623
598.2,17.0971,1.82765,-2.37795
600.5,17.173,1.81485,-2.3779
602.8,17.2495,1.80099,-2.37657
605.1,17.3258,1.78711,-2.37659
607.4,17.4021,1.76817,-2.3779
609.7,17.4783,1.75562,-2.37659
612,17.5548,1.74234,-2.37526
614.3,17.6316,1.73007,-2.37658
616.6,17.708,1.72487,-2.37791
618.9,17.7846,1.71116,-2.37891
621.2,17.8613,1.70043,-2.37889
623.5,17.9375,1.68666,-2.37856
625.8,18.0143,1.67105,-2.37755
628.1,18.091,1.65941,-2.37752
630.4,18.1677,1.6496,-2.38032
632.7,18.2446,1.63374,-2.38335
635,18.3209,1.61931,-2.38466
637.3,18.3978,1.6244,-2.38603
639.6,18.4741,1.62095,-2.38598
641.9,18.5509,1.62713,-2.38468
644.2,18.6279,1.61596,-2.38198
646.5,18.7046,1.62206,-2.38196
648.8,18.7815,1.60802,-2.38065
651.1,18.8583,1.60463,-2.37966
653.4,18.9352,1.6043,-2.38084
655.7,19.0121,1.60744,-2.37846
658,19.0883,1.59476,-2.37742
660.3,19.1657,1.59149,-2.37823
662.6,19.2424,1.59106,-2.37958
664.9,19.3194,1.5789,-2.38089
667.2,19.3962,1.57288,-2.3837
669.5,19.4726,1.55931,-2.38633
671.8,19.5499,1.55832,-2.38767
674.1,19.6268,1.54651,-2.38622
676.4,19.7039,1.53435,-2.38635
678.7,19.7808,1.5333,-2.38756
681,19.858,1.53701,-2.38812
683.3,19.935,1.53271,-2.39072
685.6,20.012,1.53807,-2.38954
687.9,20.0884,1.52409,-2.38956
690.2,20.1664,1.5239,-2.388
692.5,20.2435,1.5158,-2.3883
694.8,20.321,1.51081,-2.38673
697.1,20.3984,1.51021,-2.38669
699.4,20.4758,1.50365,-2.38404
701.7,20.5536,1.4942,-2.38405
704,20.6311,1.49848,-2.38405
706.3,20.7089,1.48477,-2.38677
708.6,20.7864,1.46877,-2.39191
710.9,20.8638,1.47379,-2.39412
713.2,20.9422,1.47827,-2.39262
715.5,21.0201,1.49159,-2.39252
717.8,21.0978,1.49279,-2.39095
720.1,21.176,1.5028,-2.38976
722.4,21.2539,1.50586,-2.38976
724.7,21.3318,1.50509,-2.39104
727,21.4098,1.49985,-2.38966
729.3,21.488,1.48146,-2.38994
731.6,21.5659,1.48174,-2.39108
733.9,21.6439,1.47308,-2.3914
736.2,21.7223,1.48438,-2.38969
738.5,21.8003,1.47919,-2.3909
740,21.8514,1.4795,-2.39229