File: 01_Data/PC/FTIR/IS/PC_0.81_Trans_S_IS_230516_R1.dpt
7496.92,0.91682
7473.77,0.91501
7450.63,0.87765
7427.48,0.87248
7404.34,0.92046
7381.19,0.84414
7358.05,0.86598
7334.9,0.85631
7311.76,0.86870
7288.62,0.86904
7265.47,0.88695
7242.33,0.88585
7219.18,0.84315
7196.04,0.91534
7172.89,0.88237
7149.75,0.84539
7126.6,0.87222
7103.46,0.86741
7080.31,0.87795
7057.17,0.84799
7034.02,0.89407
7010.88,0.88535
6987.74,0.86909
6964.59,0.88499
6941.45,0.88872
6918.3,0.91671
6895.16,0.88905
6872.01,0.89176
6848.87,0.88615
6825.72,0.89288
6802.58,0.89188
6779.43,0.88626
6756.29,0.90248
6733.15,0.89750
6710,0.90933
6686.86,0.89278
6663.71,0.89639
6640.57,0.91663
6617.42,0.89645
6594.28,0.91201
6571.13,0.91041
6547.99,0.92058
6524.84,0.89035
6501.7,0.91026
6478.55,0.91009
6455.41,0.89604
6432.27,0.90000
6409.12,0.89685
6385.98,0.89893
6362.83,0.89311
6339.69,0.89975
6316.54,0.89603
6293.4,0.88517
6270.25,0.89076
6247.11,0.88396
6223.96,0.87803
6200.82,0.87256
6177.68,0.85073
6154.53,0.84213
6131.39,0.81010
6108.24,0.79279
6085.1,0.72638
6061.95,0.67863
6038.81,0.61292
6015.66,0.47693
5992.52,0.39625
5969.37,0.55210
5946.23,0.58253
5923.08,0.55574
5899.94,0.59900
5876.8,0.64761
5853.65,0.73633
5830.51,0.74823
5807.36,0.75058
5784.22,0.73970
5761.07,0.72402
5737.93,0.76915
5714.78,0.81107
5691.64,0.81637
5668.49,0.79362
5645.35,0.80431
5622.21,0.83303
5599.06,0.84623
5575.92,0.84192
5552.77,0.83896
5529.63,0.83842
5506.48,0.83578
5483.34,0.83131
5460.19,0.82353
5437.05,0.83619
5413.9,0.83480
5390.76,0.83832
5367.61,0.84434
5344.47,0.82857
5321.33,0.83860
5298.18,0.83101
5275.04,0.79298
5251.89,0.79217
5228.75,0.83275
5205.6,0.84203
5182.46,0.84664
5159.31,0.84746
5136.17,0.85668
5113.02,0.85843
5089.88,0.85633
5066.74,0.85540
5043.59,0.85873
5020.45,0.85159
4997.3,0.84888
4974.16,0.84461
4951.01,0.84074
4927.87,0.83503
4904.72,0.81548
4881.58,0.80197
4858.43,0.78571
4835.29,0.77964
4812.14,0.78876
4789,0.78309
4765.86,0.75710
4742.71,0.70873
4719.57,0.58841
4696.42,0.37341
4673.28,0.33578
4650.13,0.39458
4626.99,0.33300
4603.84,0.58303
4580.7,0.52608
4557.55,0.61674
4534.41,0.65817
4511.27,0.65933
4488.12,0.59355
4464.98,0.56753
4441.83,0.47171
4418.69,0.30247
4395.54,0.28332
4372.4,0.25601
4349.25,0.20519
4326.11,0.15969
4302.96,0.20623
4279.82,0.24622
4256.67,0.29312
4233.53,0.29177
4210.39,0.26128
4187.24,0.24372
4164.1,0.23864
4140.95,0.32658
4117.81,0.30179
4094.66,0.11538
4071.52,0.03846
4048.37,0.20216
4025.23,0.33206
4002.08,0.32896
3978.94,0.32258
3955.8,0.36927
3932.65,0.34918
3909.51,0.31836
3886.36,0.27513
3863.22,0.38023
3840.07,0.45383
3816.93,0.45773
3793.78,0.50380
3770.64,0.51522
3747.49,0.40982
3724.35,0.44306
3701.2,0.29890
3678.06,0.07790
3654.92,0.17017
3631.77,0.34099
3608.63,0.41198
3585.48,0.17958
3562.34,0.12213
3539.19,0.05861
3516.05,0.10699
3492.9,0.27888
3469.76,0.35033
3446.61,0.42754
3423.47,0.48303
3400.33,0.47978
3377.18,0.42345
3354.04,0.42314
3330.89,0.40942
3307.75,0.32653
3284.6,0.26960
3261.46,0.23428
3238.31,0.20390
3215.17,0.16185
3192.02,0.09294
3168.88,0.09502
3145.73,0.06169
3122.59,0.00561
3099.45,0.00196
3076.3,0.00042
3053.16,0.00013
3030.01,0.00061
3006.87,0.00036
2983.72,0.00035
2960.58,0.00063
2937.43,0.00049
2914.29,0.00051
2891.14,0.00021
2868,0.00022
2844.86,0.03507
2821.71,0.10672
2798.57,0.11888
2775.42,0.07054
2752.28,0.22952
2729.13,0.19516
2705.99,0.23858
2682.84,0.33170
2659.7,0.33081
2636.55,0.38925
2613.41,0.20871
2590.26,0.19068
2567.12,0.27344
2543.98,0.25689
2520.83,0.22110
2497.69,0.14343
2474.54,0.05712
2451.4,0.05496
2428.25,0.04744
2405.11,0.02669
2381.96,0.06614
2358.82,0.13187
2335.67,0.11133
2312.53,0.11533
2289.39,0.09444
2266.24,0.02956
2243.1,0.00075
2219.95,0.00236
2196.81,0.00599
2173.66,0.06953
2150.52,0.20454
2127.37,0.12976
2104.23,0.06223
2081.08,0.01029
2057.94,0.00895
2034.79,0.01931
2011.65,0.01401
1988.51,0.01839
1965.36,0.05261
1942.22,0.02682
1919.07,0.00719
1895.93,0.00016
1872.78,0.00088
1849.64,0.00020
1826.49,0.00026
1803.35,0.00041
1780.2,0.00006
1757.06,0.00042
1733.92,0.00072
1710.77,0.00039
1687.63,0.00178
1664.48,0.00030
1641.34,0.00035
1618.19,0.00050
1595.05,0.00050
1571.9,0.00081
1548.76,0.00022
1525.61,0.00018
1502.47,0.00041
1479.32,0.00023
1456.18,0.00053
1433.04,0.00023
1409.89,0.00024
1386.75,0.00055
1363.6,0.00009
1340.46,0.00035
1317.31,-0.00007
1294.17,0.00026
1271.02,0.00037
1247.88,0.00017
1224.73,0.00052
1201.59,0.00046
1178.45,0.00065
1155.3,0.00054
1132.16,0.00037
1109.01,0.00040
1085.87,0.00007
1062.72,0.00048
1039.58,0.00023
1016.43,0.00002
993.288,0.00029
970.144,0.00255
946.999,0.00040
923.855,0.00151
900.71,0.00047
877.565,0.00048
854.421,0.00048
831.276,0.00107
808.132,0.00038
784.987,0.00069
761.843,0.00025
738.698,0.00061
715.553,0.00085
692.409,0.00226
669.264,0.05051
646.12,0.05794
622.975,0.02520
599.83,0.00352