File: 01_Data/PC/FTIR/IS/PC_0.81_Trans_S_IS_230516_R3.dpt
7496.92,0.90226
7473.77,0.90672
7450.63,0.89172
7427.48,0.86820
7404.34,0.89302
7381.19,0.87620
7358.05,0.87793
7334.9,0.87158
7311.76,0.85700
7288.62,0.87838
7265.47,0.87070
7242.33,0.85833
7219.18,0.86619
7196.04,0.89626
7172.89,0.88880
7149.75,0.84601
7126.6,0.87894
7103.46,0.85102
7080.31,0.84461
7057.17,0.86646
7034.02,0.87692
7010.88,0.89830
6987.74,0.89008
6964.59,0.88129
6941.45,0.89591
6918.3,0.90486
6895.16,0.90693
6872.01,0.88975
6848.87,0.89101
6825.72,0.90411
6802.58,0.88776
6779.43,0.88712
6756.29,0.89716
6733.15,0.89977
6710,0.90417
6686.86,0.90780
6663.71,0.89565
6640.57,0.92173
6617.42,0.90287
6594.28,0.91192
6571.13,0.91857
6547.99,0.90468
6524.84,0.90195
6501.7,0.90027
6478.55,0.90609
6455.41,0.90233
6432.27,0.90270
6409.12,0.89850
6385.98,0.89864
6362.83,0.89380
6339.69,0.90062
6316.54,0.89515
6293.4,0.89471
6270.25,0.88801
6247.11,0.88834
6223.96,0.87760
6200.82,0.86672
6177.68,0.84570
6154.53,0.84172
6131.39,0.81670
6108.24,0.80016
6085.1,0.72413
6061.95,0.67944
6038.81,0.60981
6015.66,0.47166
5992.52,0.39569
5969.37,0.55101
5946.23,0.58070
5923.08,0.55775
5899.94,0.60244
5876.8,0.65303
5853.65,0.73152
5830.51,0.74734
5807.36,0.75648
5784.22,0.73870
5761.07,0.72336
5737.93,0.77036
5714.78,0.81214
5691.64,0.81992
5668.49,0.79228
5645.35,0.80445
5622.21,0.83433
5599.06,0.84749
5575.92,0.84293
5552.77,0.83749
5529.63,0.84080
5506.48,0.83575
5483.34,0.83345
5460.19,0.82790
5437.05,0.83566
5413.9,0.83456
5390.76,0.84003
5367.61,0.84714
5344.47,0.82852
5321.33,0.84337
5298.18,0.83322
5275.04,0.79688
5251.89,0.79614
5228.75,0.83492
5205.6,0.84484
5182.46,0.84781
5159.31,0.84744
5136.17,0.85728
5113.02,0.85979
5089.88,0.85837
5066.74,0.85694
5043.59,0.85899
5020.45,0.85391
4997.3,0.84916
4974.16,0.84516
4951.01,0.84046
4927.87,0.83593
4904.72,0.81704
4881.58,0.80330
4858.43,0.78636
4835.29,0.77957
4812.14,0.79002
4789,0.78496
4765.86,0.75863
4742.71,0.70916
4719.57,0.59032
4696.42,0.37478
4673.28,0.33509
4650.13,0.39649
4626.99,0.33212
4603.84,0.58465
4580.7,0.52588
4557.55,0.61585
4534.41,0.65882
4511.27,0.66188
4488.12,0.59413
4464.98,0.56726
4441.83,0.47236
4418.69,0.30187
4395.54,0.28351
4372.4,0.25634
4349.25,0.20505
4326.11,0.16036
4302.96,0.20711
4279.82,0.24722
4256.67,0.29249
4233.53,0.29300
4210.39,0.26136
4187.24,0.24371
4164.1,0.23933
4140.95,0.32772
4117.81,0.30128
4094.66,0.11585
4071.52,0.03759
4048.37,0.20260
4025.23,0.33226
4002.08,0.32926
3978.94,0.32236
3955.8,0.37030
3932.65,0.34993
3909.51,0.31844
3886.36,0.27518
3863.22,0.38091
3840.07,0.45385
3816.93,0.45816
3793.78,0.50510
3770.64,0.51578
3747.49,0.41091
3724.35,0.44492
3701.2,0.30273
3678.06,0.08176
3654.92,0.17757
3631.77,0.34770
3608.63,0.41673
3585.48,0.18480
3562.34,0.12594
3539.19,0.05961
3516.05,0.10840
3492.9,0.28208
3469.76,0.35371
3446.61,0.42994
3423.47,0.48519
3400.33,0.48121
3377.18,0.42544
3354.04,0.42425
3330.89,0.41068
3307.75,0.32726
3284.6,0.27064
3261.46,0.23536
3238.31,0.20399
3215.17,0.16221
3192.02,0.09264
3168.88,0.09507
3145.73,0.06134
3122.59,0.00536
3099.45,0.00228
3076.3,0.00042
3053.16,0.00058
3030.01,0.00026
3006.87,0.00036
2983.72,0.00060
2960.58,0.00056
2937.43,0.00046
2914.29,0.00048
2891.14,0.00018
2868,0.00055
2844.86,0.03505
2821.71,0.10659
2798.57,0.11903
2775.42,0.07037
2752.28,0.22982
2729.13,0.19541
2705.99,0.23860
2682.84,0.33154
2659.7,0.33039
2636.55,0.38947
2613.41,0.20888
2590.26,0.19073
2567.12,0.27339
2543.98,0.25708
2520.83,0.22160
2497.69,0.14365
2474.54,0.05743
2451.4,0.05530
2428.25,0.04716
2405.11,0.02693
2381.96,0.06637
2358.82,0.13605
2335.67,0.11479
2312.53,0.11679
2289.39,0.09498
2266.24,0.02946
2243.1,0.00091
2219.95,0.00212
2196.81,0.00605
2173.66,0.06965
2150.52,0.20421
2127.37,0.12952
2104.23,0.06198
2081.08,0.01019
2057.94,0.00907
2034.79,0.01925
2011.65,0.01374
1988.51,0.01874
1965.36,0.05212
1942.22,0.02673
1919.07,0.00751
1895.93,0.00031
1872.78,0.00047
1849.64,0.00043
1826.49,0.00049
1803.35,0.00041
1780.2,0.00027
1757.06,0.00029
1733.92,0.00019
1710.77,0.00026
1687.63,0.00141
1664.48,0.00038
1641.34,0.00046
1618.19,0.00030
1595.05,0.00050
1571.9,0.00060
1548.76,0.00050
1525.61,0.00042
1502.47,0.00017
1479.32,0.00032
1456.18,0.00046
1433.04,0.00034
1409.89,0.00016
1386.75,0.00047
1363.6,0.00040
1340.46,0.00035
1317.31,0.00043
1294.17,0.00028
1271.02,0.00027
1247.88,0.00032
1224.73,0.00027
1201.59,0.00026
1178.45,0.00052
1155.3,0.00035
1132.16,0.00015
1109.01,0.00081
1085.87,0.00028
1062.72,0.00070
1039.58,0.00109
1016.43,0.00080
993.288,0.00067
970.144,0.00238
946.999,0.00099
923.855,0.00238
900.71,0.00037
877.565,0.00044
854.421,0.00029
831.276,0.00069
808.132,0.00075
784.987,0.00052
761.843,0.00079
738.698,0.00057
715.553,0.00073
692.409,0.00281
669.264,0.05021
646.12,0.05864
622.975,0.02695
599.83,0.00357