File: 01_Data/PC/FTIR/IS/PC_0.81_T_IS_230516_R1.dpt
7496.92,0.04312
7473.77,0.04878
7450.63,0.04954
7427.48,0.06436
7404.34,0.06302
7381.19,0.05688
7358.05,0.06909
7334.9,0.05235
7311.76,0.03403
7288.62,0.05813
7265.47,0.06151
7242.33,0.02701
7219.18,0.03039
7196.04,0.02448
7172.89,0.06151
7149.75,0.06322
7126.6,0.05906
7103.46,0.05011
7080.31,0.04886
7057.17,0.06145
7034.02,0.03191
7010.88,0.03903
6987.74,0.02562
6964.59,0.05228
6941.45,0.05117
6918.3,0.02763
6895.16,0.04461
6872.01,0.04579
6848.87,0.04224
6825.72,0.05476
6802.58,0.03511
6779.43,0.04425
6756.29,0.03757
6733.15,0.04014
6710,0.03052
6686.86,0.03678
6663.71,0.03965
6640.57,0.02883
6617.42,0.03773
6594.28,0.03815
6571.13,0.02813
6547.99,0.03548
6524.84,0.04676
6501.7,0.04183
6478.55,0.03716
6455.41,0.03219
6432.27,0.02530
6409.12,0.03388
6385.98,0.04220
6362.83,0.02964
6339.69,0.03082
6316.54,0.04367
6293.4,0.02914
6270.25,0.04331
6247.11,0.03248
6223.96,0.02632
6200.82,0.03205
6177.68,0.03584
6154.53,0.04023
6131.39,0.03112
6108.24,0.03297
6085.1,0.03155
6061.95,0.03312
6038.81,0.03109
6015.66,0.03407
5992.52,0.03318
5969.37,0.03197
5946.23,0.03530
5923.08,0.02842
5899.94,0.02984
5876.8,0.02485
5853.65,0.02768
5830.51,0.02533
5807.36,0.03098
5784.22,0.02620
5761.07,0.02555
5737.93,0.02946
5714.78,0.02205
5691.64,0.03200
5668.49,0.02617
5645.35,0.02406
5622.21,0.02809
5599.06,0.02563
5575.92,0.02762
5552.77,0.02811
5529.63,0.02475
5506.48,0.02806
5483.34,0.02814
5460.19,0.02644
5437.05,0.02652
5413.9,0.02903
5390.76,0.02559
5367.61,0.02445
5344.47,0.02399
5321.33,0.02875
5298.18,0.02709
5275.04,0.02589
5251.89,0.02508
5228.75,0.02843
5205.6,0.02585
5182.46,0.02419
5159.31,0.02453
5136.17,0.02551
5113.02,0.02689
5089.88,0.02533
5066.74,0.02589
5043.59,0.02396
5020.45,0.02752
4997.3,0.02490
4974.16,0.02377
4951.01,0.02406
4927.87,0.02371
4904.72,0.02460
4881.58,0.02534
4858.43,0.02572
4835.29,0.02490
4812.14,0.02547
4789,0.02479
4765.86,0.02456
4742.71,0.02494
4719.57,0.02490
4696.42,0.02457
4673.28,0.02382
4650.13,0.02362
4626.99,0.02585
4603.84,0.02224
4580.7,0.02393
4557.55,0.02219
4534.41,0.02461
4511.27,0.02371
4488.12,0.02461
4464.98,0.02274
4441.83,0.02462
4418.69,0.02255
4395.54,0.02358
4372.4,0.02386
4349.25,0.02413
4326.11,0.02268
4302.96,0.02494
4279.82,0.02445
4256.67,0.02317
4233.53,0.02377
4210.39,0.02312
4187.24,0.02394
4164.1,0.02301
4140.95,0.02381
4117.81,0.02332
4094.66,0.02423
4071.52,0.02291
4048.37,0.02274
4025.23,0.02389
4002.08,0.02365
3978.94,0.02332
3955.8,0.02369
3932.65,0.02354
3909.51,0.02413
3886.36,0.02314
3863.22,0.02422
3840.07,0.02470
3816.93,0.02398
3793.78,0.02389
3770.64,0.02362
3747.49,0.02431
3724.35,0.02393
3701.2,0.02372
3678.06,0.02366
3654.92,0.02245
3631.77,0.02257
3608.63,0.02285
3585.48,0.02258
3562.34,0.02195
3539.19,0.02160
3516.05,0.02192
3492.9,0.02184
3469.76,0.02212
3446.61,0.02168
3423.47,0.02205
3400.33,0.02214
3377.18,0.02190
3354.04,0.02113
3330.89,0.02104
3307.75,0.02156
3284.6,0.02141
3261.46,0.02152
3238.31,0.02176
3215.17,0.02236
3192.02,0.02262
3168.88,0.02130
3145.73,0.02202
3122.59,0.02227
3099.45,0.02217
3076.3,0.02149
3053.16,0.02183
3030.01,0.02194
3006.87,0.02178
2983.72,0.02126
2960.58,0.02081
2937.43,0.02122
2914.29,0.02140
2891.14,0.02185
2868,0.02195
2844.86,0.02144
2821.71,0.02281
2798.57,0.02246
2775.42,0.02185
2752.28,0.02290
2729.13,0.02283
2705.99,0.02324
2682.84,0.02277
2659.7,0.02286
2636.55,0.02243
2613.41,0.02224
2590.26,0.02262
2567.12,0.02277
2543.98,0.02279
2520.83,0.02293
2497.69,0.02336
2474.54,0.02286
2451.4,0.02300
2428.25,0.02258
2405.11,0.02252
2381.96,0.02287
2358.82,0.02368
2335.67,0.02372
2312.53,0.02344
2289.39,0.02304
2266.24,0.02306
2243.1,0.02301
2219.95,0.02254
2196.81,0.02250
2173.66,0.02258
2150.52,0.02244
2127.37,0.02257
2104.23,0.02292
2081.08,0.02242
2057.94,0.02274
2034.79,0.02213
2011.65,0.02290
1988.51,0.02297
1965.36,0.02221
1942.22,0.02259
1919.07,0.02298
1895.93,0.02249
1872.78,0.02240
1849.64,0.02222
1826.49,0.02164
1803.35,0.02178
1780.2,0.02064
1757.06,0.01972
1733.92,0.02067
1710.77,0.02239
1687.63,0.02111
1664.48,0.02035
1641.34,0.02033
1618.19,0.02113
1595.05,0.02071
1571.9,0.02025
1548.76,0.02013
1525.61,0.02078
1502.47,0.02079
1479.32,0.02069
1456.18,0.02029
1433.04,0.02031
1409.89,0.01961
1386.75,0.01948
1363.6,0.01963
1340.46,0.01933
1317.31,0.01876
1294.17,0.01967
1271.02,0.02060
1247.88,0.02136
1224.73,0.02095
1201.59,0.02027
1178.45,0.01938
1155.3,0.01892
1132.16,0.01900
1109.01,0.01973
1085.87,0.01985
1062.72,0.02189
1039.58,0.02078
1016.43,0.02154
993.288,0.02227
970.144,0.02253
946.999,0.02195
923.855,0.02114
900.71,0.02120
877.565,0.02140
854.421,0.02099
831.276,0.02078
808.132,0.01993
784.987,0.02028
761.843,0.02001
738.698,0.01862
715.553,0.02019
692.409,0.01940
669.264,0.01940
646.12,0.01868
622.975,0.01828
599.83,0.01710