File: 01_Data/PC/FTIR/IS/PC_0.81_Trans_S_IS_230516_R2.dpt
7496.92,0.91146
7473.77,0.89983
7450.63,0.91599
7427.48,0.86053
7404.34,0.90543
7381.19,0.86564
7358.05,0.84757
7334.9,0.85371
7311.76,0.84992
7288.62,0.87168
7265.47,0.87986
7242.33,0.83973
7219.18,0.83604
7196.04,0.87707
7172.89,0.86697
7149.75,0.84617
7126.6,0.86853
7103.46,0.86333
7080.31,0.87329
7057.17,0.84272
7034.02,0.87130
7010.88,0.87804
6987.74,0.88760
6964.59,0.88689
6941.45,0.88748
6918.3,0.92155
6895.16,0.88672
6872.01,0.87675
6848.87,0.88548
6825.72,0.90117
6802.58,0.90058
6779.43,0.89136
6756.29,0.90639
6733.15,0.90164
6710,0.91173
6686.86,0.90994
6663.71,0.90120
6640.57,0.90673
6617.42,0.90980
6594.28,0.91661
6571.13,0.90638
6547.99,0.90328
6524.84,0.90415
6501.7,0.90681
6478.55,0.90773
6455.41,0.89882
6432.27,0.90045
6409.12,0.90500
6385.98,0.90739
6362.83,0.90287
6339.69,0.90745
6316.54,0.90381
6293.4,0.89335
6270.25,0.89080
6247.11,0.88996
6223.96,0.87721
6200.82,0.87368
6177.68,0.85311
6154.53,0.84274
6131.39,0.81501
6108.24,0.79618
6085.1,0.73967
6061.95,0.68066
6038.81,0.61541
6015.66,0.47920
5992.52,0.39555
5969.37,0.55653
5946.23,0.58452
5923.08,0.56083
5899.94,0.59959
5876.8,0.65295
5853.65,0.73479
5830.51,0.74715
5807.36,0.75577
5784.22,0.73684
5761.07,0.72292
5737.93,0.76813
5714.78,0.81665
5691.64,0.82069
5668.49,0.79661
5645.35,0.80843
5622.21,0.83798
5599.06,0.84888
5575.92,0.84388
5552.77,0.84144
5529.63,0.84302
5506.48,0.83792
5483.34,0.83798
5460.19,0.83124
5437.05,0.83692
5413.9,0.83617
5390.76,0.84105
5367.61,0.84663
5344.47,0.83295
5321.33,0.84427
5298.18,0.83537
5275.04,0.79942
5251.89,0.79786
5228.75,0.83540
5205.6,0.84606
5182.46,0.84727
5159.31,0.85211
5136.17,0.85856
5113.02,0.86016
5089.88,0.85842
5066.74,0.85769
5043.59,0.85982
5020.45,0.85561
4997.3,0.85161
4974.16,0.84813
4951.01,0.84358
4927.87,0.83802
4904.72,0.81864
4881.58,0.80614
4858.43,0.78758
4835.29,0.78207
4812.14,0.79202
4789,0.78465
4765.86,0.76042
4742.71,0.71062
4719.57,0.59156
4696.42,0.37534
4673.28,0.33494
4650.13,0.39706
4626.99,0.33363
4603.84,0.58552
4580.7,0.52640
4557.55,0.61742
4534.41,0.66029
4511.27,0.66221
4488.12,0.59478
4464.98,0.56919
4441.83,0.47345
4418.69,0.30295
4395.54,0.28479
4372.4,0.25619
4349.25,0.20554
4326.11,0.16067
4302.96,0.20702
4279.82,0.24670
4256.67,0.29201
4233.53,0.29354
4210.39,0.26233
4187.24,0.24471
4164.1,0.23943
4140.95,0.32842
4117.81,0.30240
4094.66,0.11657
4071.52,0.03780
4048.37,0.20324
4025.23,0.33288
4002.08,0.32997
3978.94,0.32372
3955.8,0.37050
3932.65,0.34969
3909.51,0.31920
3886.36,0.27676
3863.22,0.37983
3840.07,0.45424
3816.93,0.45882
3793.78,0.50601
3770.64,0.51688
3747.49,0.41087
3724.35,0.44515
3701.2,0.30074
3678.06,0.07885
3654.92,0.17560
3631.77,0.34537
3608.63,0.41547
3585.48,0.18396
3562.34,0.12421
3539.19,0.05924
3516.05,0.10875
3492.9,0.28169
3469.76,0.35372
3446.61,0.42957
3423.47,0.48579
3400.33,0.48268
3377.18,0.42517
3354.04,0.42505
3330.89,0.41162
3307.75,0.32780
3284.6,0.27070
3261.46,0.23573
3238.31,0.20416
3215.17,0.16210
3192.02,0.09312
3168.88,0.09493
3145.73,0.06192
3122.59,0.00519
3099.45,0.00186
3076.3,0.00014
3053.16,0.00079
3030.01,0.00006
3006.87,0.00035
2983.72,0.00020
2960.58,0.00039
2937.43,0.00035
2914.29,0.00045
2891.14,0.00040
2868,0.00018
2844.86,0.03516
2821.71,0.10688
2798.57,0.11915
2775.42,0.07089
2752.28,0.23000
2729.13,0.19546
2705.99,0.23920
2682.84,0.33242
2659.7,0.33122
2636.55,0.39023
2613.41,0.20953
2590.26,0.19127
2567.12,0.27396
2543.98,0.25757
2520.83,0.22175
2497.69,0.14369
2474.54,0.05702
2451.4,0.05552
2428.25,0.04758
2405.11,0.02653
2381.96,0.06606
2358.82,0.13375
2335.67,0.11447
2312.53,0.11630
2289.39,0.09479
2266.24,0.02963
2243.1,0.00086
2219.95,0.00201
2196.81,0.00576
2173.66,0.06989
2150.52,0.20488
2127.37,0.13009
2104.23,0.06202
2081.08,0.00998
2057.94,0.00896
2034.79,0.01936
2011.65,0.01384
1988.51,0.01826
1965.36,0.05209
1942.22,0.02663
1919.07,0.00704
1895.93,0.00054
1872.78,0.00088
1849.64,0.00012
1826.49,0.00015
1803.35,0.00034
1780.2,0.00038
1757.06,0.00006
1733.92,0.00053
1710.77,0.00023
1687.63,0.00175
1664.48,0.00024
1641.34,0.00015
1618.19,0.00014
1595.05,0.00033
1571.9,0.00073
1548.76,0.00022
1525.61,0.00052
1502.47,0.00029
1479.32,0.00017
1456.18,0.00063
1433.04,0.00047
1409.89,0.00036
1386.75,0.00024
1363.6,0.00014
1340.46,0.00053
1317.31,0.00047
1294.17,0.00043
1271.02,0.00015
1247.88,0.00035
1224.73,0.00034
1201.59,0.00014
1178.45,0.00011
1155.3,0.00047
1132.16,0.00053
1109.01,0.00058
1085.87,0.00011
1062.72,0.00054
1039.58,0.00024
1016.43,0.00040
993.288,0.00021
970.144,0.00219
946.999,0.00070
923.855,0.00184
900.71,0.00014
877.565,0.00047
854.421,0.00082
831.276,0.00112
808.132,0.00026
784.987,0.00074
761.843,0.00128
738.698,0.00069
715.553,0.00042
692.409,0.00223
669.264,0.05049
646.12,0.05842
622.975,0.02805
599.83,0.00249