File: 01_Data/PC/FTIR/IS/PC_0.81_S_IS_230516_R1.dpt
7496.92,0.09193
7473.77,0.07314
7450.63,0.08065
7427.48,0.08243
7404.34,0.08512
7381.19,0.06854
7358.05,0.07587
7334.9,0.07261
7311.76,0.08761
7288.62,0.08776
7265.47,0.12045
7242.33,0.08715
7219.18,0.10539
7196.04,0.11338
7172.89,0.08411
7149.75,0.07587
7126.6,0.10291
7103.46,0.09662
7080.31,0.09257
7057.17,0.10241
7034.02,0.09828
7010.88,0.11471
6987.74,0.10085
6964.59,0.11225
6941.45,0.09536
6918.3,0.11863
6895.16,0.09245
6872.01,0.09978
6848.87,0.09013
6825.72,0.10595
6802.58,0.10478
6779.43,0.09891
6756.29,0.10726
6733.15,0.10672
6710,0.10676
6686.86,0.10158
6663.71,0.09795
6640.57,0.11854
6617.42,0.10153
6594.28,0.10744
6571.13,0.10977
6547.99,0.11546
6524.84,0.11209
6501.7,0.11330
6478.55,0.11093
6455.41,0.11211
6432.27,0.12342
6409.12,0.11938
6385.98,0.10519
6362.83,0.11179
6339.69,0.11304
6316.54,0.12015
6293.4,0.11249
6270.25,0.11756
6247.11,0.12181
6223.96,0.11920
6200.82,0.11705
6177.68,0.10471
6154.53,0.11246
6131.39,0.10036
6108.24,0.09868
6085.1,0.10410
6061.95,0.08194
6038.81,0.07599
6015.66,0.06197
5992.52,0.05355
5969.37,0.06856
5946.23,0.07523
5923.08,0.06811
5899.94,0.07591
5876.8,0.08481
5853.65,0.10173
5830.51,0.10017
5807.36,0.10266
5784.22,0.09859
5761.07,0.09419
5737.93,0.10541
5714.78,0.11007
5691.64,0.11328
5668.49,0.11051
5645.35,0.11357
5622.21,0.12085
5599.06,0.12309
5575.92,0.12150
5552.77,0.11962
5529.63,0.12349
5506.48,0.12179
5483.34,0.12024
5460.19,0.12426
5437.05,0.12643
5413.9,0.12208
5390.76,0.12634
5367.61,0.12819
5344.47,0.12813
5321.33,0.12954
5298.18,0.12612
5275.04,0.11974
5251.89,0.11940
5228.75,0.12743
5205.6,0.12898
5182.46,0.13322
5159.31,0.13117
5136.17,0.13232
5113.02,0.13475
5089.88,0.13621
5066.74,0.13211
5043.59,0.13614
5020.45,0.13630
4997.3,0.13502
4974.16,0.13274
4951.01,0.13489
4927.87,0.13290
4904.72,0.13069
4881.58,0.13001
4858.43,0.12624
4835.29,0.12437
4812.14,0.12568
4789,0.12571
4765.86,0.12227
4742.71,0.11336
4719.57,0.09520
4696.42,0.06814
4673.28,0.06731
4650.13,0.07182
4626.99,0.06614
4603.84,0.09376
4580.7,0.08643
4557.55,0.10085
4534.41,0.10874
4511.27,0.10848
4488.12,0.09771
4464.98,0.09361
4441.83,0.08109
4418.69,0.06673
4395.54,0.06496
4372.4,0.06385
4349.25,0.05964
4326.11,0.05891
4302.96,0.06064
4279.82,0.06297
4256.67,0.06686
4233.53,0.06811
4210.39,0.06499
4187.24,0.06358
4164.1,0.06476
4140.95,0.07046
4117.81,0.06864
4094.66,0.05920
4071.52,0.05824
4048.37,0.06213
4025.23,0.07175
4002.08,0.07275
3978.94,0.07203
3955.8,0.07638
3932.65,0.07515
3909.51,0.07183
3886.36,0.06913
3863.22,0.07875
3840.07,0.08887
3816.93,0.08914
3793.78,0.09596
3770.64,0.09763
3747.49,0.08375
3724.35,0.08802
3701.2,0.07073
3678.06,0.05974
3654.92,0.06180
3631.77,0.07458
3608.63,0.08232
3585.48,0.06196
3562.34,0.06000
3539.19,0.05745
3516.05,0.05990
3492.9,0.06776
3469.76,0.07485
3446.61,0.08280
3423.47,0.08995
3400.33,0.09052
3377.18,0.08229
3354.04,0.08229
3330.89,0.08096
3307.75,0.07282
3284.6,0.06783
3261.46,0.06578
3238.31,0.06369
3215.17,0.06235
3192.02,0.05942
3168.88,0.06039
3145.73,0.05948
3122.59,0.05877
3099.45,0.05828
3076.3,0.05848
3053.16,0.05855
3030.01,0.05884
3006.87,0.05837
2983.72,0.05757
2960.58,0.06119
2937.43,0.06005
2914.29,0.06118
2891.14,0.06023
2868,0.06058
2844.86,0.06094
2821.71,0.06236
2798.57,0.06358
2775.42,0.06160
2752.28,0.07097
2729.13,0.06866
2705.99,0.07213
2682.84,0.08423
2659.7,0.08398
2636.55,0.09389
2613.41,0.06996
2590.26,0.06892
2567.12,0.07736
2543.98,0.07606
2520.83,0.07247
2497.69,0.06583
2474.54,0.06179
2451.4,0.06190
2428.25,0.06180
2405.11,0.06116
2381.96,0.06264
2358.82,0.06804
2335.67,0.06533
2312.53,0.06558
2289.39,0.06340
2266.24,0.06113
2243.1,0.06127
2219.95,0.06164
2196.81,0.06126
2173.66,0.06252
2150.52,0.07242
2127.37,0.06520
2104.23,0.06157
2081.08,0.06066
2057.94,0.06049
2034.79,0.06058
2011.65,0.06048
1988.51,0.06031
1965.36,0.06042
1942.22,0.05981
1919.07,0.05870
1895.93,0.05858
1872.78,0.05819
1849.64,0.05657
1826.49,0.05351
1803.35,0.04706
1780.2,0.06032
1757.06,0.07882
1733.92,0.06701
1710.77,0.06411
1687.63,0.06151
1664.48,0.05984
1641.34,0.05901
1618.19,0.05831
1595.05,0.05869
1571.9,0.05725
1548.76,0.05424
1525.61,0.04883
1502.47,0.07268
1479.32,0.06276
1456.18,0.05964
1433.04,0.05679
1409.89,0.05456
1386.75,0.05348
1363.6,0.05215
1340.46,0.04793
1317.31,0.04099
1294.17,0.03554
1271.02,0.02317
1247.88,0.09273
1224.73,0.13657
1201.59,0.09088
1178.45,0.11031
1155.3,0.13644
1132.16,0.09809
1109.01,0.08712
1085.87,0.07738
1062.72,0.08414
1039.58,0.07629
1016.43,0.07887
993.288,0.08556
970.144,0.07921
946.999,0.07727
923.855,0.07505
900.71,0.07095
877.565,0.07445
854.421,0.06580
831.276,0.07770
808.132,0.08437
784.987,0.07501
761.843,0.07979
738.698,0.07653
715.553,0.07478
692.409,0.07635
669.264,0.07577
646.12,0.07323
622.975,0.06922
599.83,0.06969