File: 01_Data/PC/FTIR/IS/PC_0.81_T_IS_230516_R3.dpt
7496.92,0.07425
7473.77,0.06830
7450.63,0.06236
7427.48,0.02911
7404.34,0.03964
7381.19,0.02568
7358.05,0.06976
7334.9,0.04179
7311.76,0.03717
7288.62,0.02848
7265.47,0.07371
7242.33,0.01876
7219.18,0.03144
7196.04,0.07718
7172.89,0.03922
7149.75,0.03699
7126.6,0.04232
7103.46,0.04713
7080.31,0.05319
7057.17,0.04977
7034.02,0.02631
7010.88,0.03569
6987.74,0.06333
6964.59,0.03846
6941.45,0.04086
6918.3,0.03455
6895.16,0.02908
6872.01,0.03958
6848.87,0.03498
6825.72,0.03790
6802.58,0.03349
6779.43,0.03608
6756.29,0.04264
6733.15,0.03293
6710,0.03459
6686.86,0.04388
6663.71,0.02262
6640.57,0.03525
6617.42,0.05868
6594.28,0.02560
6571.13,0.03964
6547.99,0.03196
6524.84,0.02749
6501.7,0.03568
6478.55,0.02729
6455.41,0.03513
6432.27,0.04103
6409.12,0.03930
6385.98,0.03865
6362.83,0.03994
6339.69,0.03478
6316.54,0.02774
6293.4,0.03168
6270.25,0.02976
6247.11,0.03469
6223.96,0.02832
6200.82,0.03507
6177.68,0.03734
6154.53,0.03119
6131.39,0.03279
6108.24,0.02902
6085.1,0.02782
6061.95,0.03053
6038.81,0.03135
6015.66,0.03505
5992.52,0.02415
5969.37,0.03123
5946.23,0.03513
5923.08,0.02574
5899.94,0.02563
5876.8,0.03042
5853.65,0.02832
5830.51,0.02701
5807.36,0.03202
5784.22,0.03187
5761.07,0.03085
5737.93,0.02837
5714.78,0.02470
5691.64,0.02676
5668.49,0.02953
5645.35,0.02469
5622.21,0.02962
5599.06,0.02937
5575.92,0.02927
5552.77,0.02869
5529.63,0.02762
5506.48,0.02425
5483.34,0.02742
5460.19,0.02672
5437.05,0.02874
5413.9,0.02756
5390.76,0.02592
5367.61,0.02701
5344.47,0.02808
5321.33,0.02470
5298.18,0.02598
5275.04,0.02449
5251.89,0.02711
5228.75,0.02703
5205.6,0.02409
5182.46,0.02695
5159.31,0.02625
5136.17,0.02626
5113.02,0.02433
5089.88,0.02727
5066.74,0.02453
5043.59,0.02204
5020.45,0.02641
4997.3,0.02593
4974.16,0.02673
4951.01,0.02390
4927.87,0.02501
4904.72,0.02393
4881.58,0.02514
4858.43,0.02595
4835.29,0.02502
4812.14,0.02380
4789,0.02289
4765.86,0.02372
4742.71,0.02633
4719.57,0.02457
4696.42,0.02462
4673.28,0.02506
4650.13,0.02543
4626.99,0.02529
4603.84,0.02460
4580.7,0.02396
4557.55,0.02371
4534.41,0.02412
4511.27,0.02413
4488.12,0.02455
4464.98,0.02411
4441.83,0.02555
4418.69,0.02609
4395.54,0.02427
4372.4,0.02380
4349.25,0.02464
4326.11,0.02449
4302.96,0.02370
4279.82,0.02497
4256.67,0.02444
4233.53,0.02402
4210.39,0.02481
4187.24,0.02435
4164.1,0.02433
4140.95,0.02353
4117.81,0.02378
4094.66,0.02375
4071.52,0.02460
4048.37,0.02413
4025.23,0.02402
4002.08,0.02363
3978.94,0.02306
3955.8,0.02393
3932.65,0.02447
3909.51,0.02454
3886.36,0.02447
3863.22,0.02523
3840.07,0.02481
3816.93,0.02391
3793.78,0.02364
3770.64,0.02388
3747.49,0.02515
3724.35,0.02418
3701.2,0.02400
3678.06,0.02531
3654.92,0.02386
3631.77,0.02272
3608.63,0.02348
3585.48,0.02314
3562.34,0.02297
3539.19,0.02230
3516.05,0.02233
3492.9,0.02254
3469.76,0.02193
3446.61,0.02194
3423.47,0.02115
3400.33,0.02191
3377.18,0.02155
3354.04,0.02189
3330.89,0.02216
3307.75,0.02281
3284.6,0.02173
3261.46,0.02226
3238.31,0.02261
3215.17,0.02261
3192.02,0.02268
3168.88,0.02236
3145.73,0.02294
3122.59,0.02249
3099.45,0.02220
3076.3,0.02275
3053.16,0.02242
3030.01,0.02291
3006.87,0.02258
2983.72,0.02234
2960.58,0.02206
2937.43,0.02175
2914.29,0.02213
2891.14,0.02247
2868,0.02300
2844.86,0.02327
2821.71,0.02357
2798.57,0.02351
2775.42,0.02287
2752.28,0.02343
2729.13,0.02339
2705.99,0.02371
2682.84,0.02314
2659.7,0.02384
2636.55,0.02342
2613.41,0.02341
2590.26,0.02354
2567.12,0.02338
2543.98,0.02389
2520.83,0.02345
2497.69,0.02329
2474.54,0.02390
2451.4,0.02331
2428.25,0.02395
2405.11,0.02330
2381.96,0.02292
2358.82,0.02330
2335.67,0.02398
2312.53,0.02440
2289.39,0.02336
2266.24,0.02357
2243.1,0.02394
2219.95,0.02388
2196.81,0.02358
2173.66,0.02369
2150.52,0.02359
2127.37,0.02380
2104.23,0.02332
2081.08,0.02356
2057.94,0.02332
2034.79,0.02346
2011.65,0.02321
1988.51,0.02347
1965.36,0.02336
1942.22,0.02334
1919.07,0.02375
1895.93,0.02351
1872.78,0.02352
1849.64,0.02324
1826.49,0.02269
1803.35,0.02293
1780.2,0.02180
1757.06,0.02037
1733.92,0.02182
1710.77,0.02345
1687.63,0.02181
1664.48,0.02081
1641.34,0.02126
1618.19,0.02157
1595.05,0.02147
1571.9,0.02111
1548.76,0.02084
1525.61,0.02170
1502.47,0.02165
1479.32,0.02082
1456.18,0.02097
1433.04,0.02062
1409.89,0.02088
1386.75,0.02007
1363.6,0.02059
1340.46,0.02024
1317.31,0.01900
1294.17,0.02003
1271.02,0.02138
1247.88,0.02213
1224.73,0.02137
1201.59,0.02087
1178.45,0.01998
1155.3,0.01958
1132.16,0.02034
1109.01,0.02016
1085.87,0.02100
1062.72,0.02202
1039.58,0.02132
1016.43,0.02134
993.288,0.02340
970.144,0.02280
946.999,0.02248
923.855,0.02224
900.71,0.02204
877.565,0.02121
854.421,0.02147
831.276,0.02139
808.132,0.02072
784.987,0.02046
761.843,0.01949
738.698,0.02044
715.553,0.01985
692.409,0.01914
669.264,0.01986
646.12,0.01714
622.975,0.01686
599.83,0.01676