File: 01_Data/PC/FTIR/IS/PC_0.81_S_IS_230516_R2.dpt
7496.92,0.08899
7473.77,0.09650
7450.63,0.10637
7427.48,0.10378
7404.34,0.08475
7381.19,0.08514
7358.05,0.08004
7334.9,0.08238
7311.76,0.10533
7288.62,0.09592
7265.47,0.08021
7242.33,0.12139
7219.18,0.10011
7196.04,0.08694
7172.89,0.08433
7149.75,0.11235
7126.6,0.08200
7103.46,0.10161
7080.31,0.08784
7057.17,0.11592
7034.02,0.09090
7010.88,0.11561
6987.74,0.09639
6964.59,0.11233
6941.45,0.11747
6918.3,0.09765
6895.16,0.11682
6872.01,0.11462
6848.87,0.11873
6825.72,0.11589
6802.58,0.11033
6779.43,0.10677
6756.29,0.09805
6733.15,0.10205
6710,0.10458
6686.86,0.12423
6663.71,0.12283
6640.57,0.10933
6617.42,0.10457
6594.28,0.11180
6571.13,0.11877
6547.99,0.10374
6524.84,0.11990
6501.7,0.10948
6478.55,0.12001
6455.41,0.10933
6432.27,0.12614
6409.12,0.12837
6385.98,0.11453
6362.83,0.11206
6339.69,0.11519
6316.54,0.11670
6293.4,0.12260
6270.25,0.11413
6247.11,0.11791
6223.96,0.11439
6200.82,0.11546
6177.68,0.10291
6154.53,0.10394
6131.39,0.10409
6108.24,0.10651
6085.1,0.08843
6061.95,0.08464
6038.81,0.07399
6015.66,0.06274
5992.52,0.04864
5969.37,0.06554
5946.23,0.07033
5923.08,0.06876
5899.94,0.07742
5876.8,0.08515
5853.65,0.09999
5830.51,0.09547
5807.36,0.09632
5784.22,0.09716
5761.07,0.09864
5737.93,0.10234
5714.78,0.11511
5691.64,0.11469
5668.49,0.11428
5645.35,0.11460
5622.21,0.12033
5599.06,0.12214
5575.92,0.11689
5552.77,0.12281
5529.63,0.12344
5506.48,0.12141
5483.34,0.12355
5460.19,0.12177
5437.05,0.12149
5413.9,0.12184
5390.76,0.12560
5367.61,0.12668
5344.47,0.12439
5321.33,0.12743
5298.18,0.12447
5275.04,0.11750
5251.89,0.11938
5228.75,0.13012
5205.6,0.12935
5182.46,0.13103
5159.31,0.13263
5136.17,0.13434
5113.02,0.13476
5089.88,0.13594
5066.74,0.13348
5043.59,0.13467
5020.45,0.13249
4997.3,0.13399
4974.16,0.13419
4951.01,0.13562
4927.87,0.13213
4904.72,0.12970
4881.58,0.12949
4858.43,0.12777
4835.29,0.12352
4812.14,0.12830
4789,0.12566
4765.86,0.12174
4742.71,0.11276
4719.57,0.09391
4696.42,0.06958
4673.28,0.06544
4650.13,0.07223
4626.99,0.06728
4603.84,0.09700
4580.7,0.08692
4557.55,0.10037
4534.41,0.10825
4511.27,0.10945
4488.12,0.09899
4464.98,0.09418
4441.83,0.08198
4418.69,0.06524
4395.54,0.06452
4372.4,0.06192
4349.25,0.06171
4326.11,0.05823
4302.96,0.06054
4279.82,0.06311
4256.67,0.06796
4233.53,0.06731
4210.39,0.06474
4187.24,0.06423
4164.1,0.06449
4140.95,0.06959
4117.81,0.06944
4094.66,0.05795
4071.52,0.05753
4048.37,0.06253
4025.23,0.07171
4002.08,0.07138
3978.94,0.07159
3955.8,0.07556
3932.65,0.07451
3909.51,0.07120
3886.36,0.06852
3863.22,0.07936
3840.07,0.08874
3816.93,0.08968
3793.78,0.09441
3770.64,0.09746
3747.49,0.08416
3724.35,0.08869
3701.2,0.07038
3678.06,0.05930
3654.92,0.06360
3631.77,0.07485
3608.63,0.08240
3585.48,0.06272
3562.34,0.06085
3539.19,0.05880
3516.05,0.05842
3492.9,0.06888
3469.76,0.07424
3446.61,0.08324
3423.47,0.09042
3400.33,0.09047
3377.18,0.08262
3354.04,0.08273
3330.89,0.08159
3307.75,0.07233
3284.6,0.06791
3261.46,0.06645
3238.31,0.06401
3215.17,0.06188
3192.02,0.05986
3168.88,0.06017
3145.73,0.05935
3122.59,0.05882
3099.45,0.05902
3076.3,0.05892
3053.16,0.05891
3030.01,0.05888
3006.87,0.05846
2983.72,0.05703
2960.58,0.06105
2937.43,0.05994
2914.29,0.06066
2891.14,0.06009
2868,0.06073
2844.86,0.06097
2821.71,0.06295
2798.57,0.06280
2775.42,0.06184
2752.28,0.07121
2729.13,0.06858
2705.99,0.07181
2682.84,0.08390
2659.7,0.08396
2636.55,0.09406
2613.41,0.07026
2590.26,0.06858
2567.12,0.07772
2543.98,0.07550
2520.83,0.07181
2497.69,0.06559
2474.54,0.06170
2451.4,0.06174
2428.25,0.06191
2405.11,0.06155
2381.96,0.06249
2358.82,0.06728
2335.67,0.06596
2312.53,0.06478
2289.39,0.06330
2266.24,0.06124
2243.1,0.06074
2219.95,0.06110
2196.81,0.06114
2173.66,0.06231
2150.52,0.07226
2127.37,0.06513
2104.23,0.06138
2081.08,0.06056
2057.94,0.06079
2034.79,0.06016
2011.65,0.06013
1988.51,0.06037
1965.36,0.06025
1942.22,0.05976
1919.07,0.05826
1895.93,0.05839
1872.78,0.05764
1849.64,0.05621
1826.49,0.05349
1803.35,0.04712
1780.2,0.06005
1757.06,0.07848
1733.92,0.06745
1710.77,0.06392
1687.63,0.06135
1664.48,0.06001
1641.34,0.05914
1618.19,0.05782
1595.05,0.05839
1571.9,0.05746
1548.76,0.05407
1525.61,0.04908
1502.47,0.07205
1479.32,0.06225
1456.18,0.05926
1433.04,0.05678
1409.89,0.05449
1386.75,0.05356
1363.6,0.05226
1340.46,0.04756
1317.31,0.04047
1294.17,0.03492
1271.02,0.02306
1247.88,0.09306
1224.73,0.13584
1201.59,0.09036
1178.45,0.10996
1155.3,0.13574
1132.16,0.09809
1109.01,0.08649
1085.87,0.07702
1062.72,0.08447
1039.58,0.07623
1016.43,0.07880
993.288,0.08555
970.144,0.07999
946.999,0.07687
923.855,0.07476
900.71,0.07042
877.565,0.07462
854.421,0.06569
831.276,0.07757
808.132,0.08525
784.987,0.07519
761.843,0.08039
738.698,0.07685
715.553,0.07475
692.409,0.07682
669.264,0.07395
646.12,0.07255
622.975,0.07145
599.83,0.06860