File: 01_Data/PC/FTIR/IS/PC_0.81_S_IS_230516_R3.dpt
7496.92,0.11175
7473.77,0.09195
7450.63,0.07299
7427.48,0.09208
7404.34,0.10906
7381.19,0.06514
7358.05,0.08008
7334.9,0.10460
7311.76,0.09092
7288.62,0.08243
7265.47,0.09886
7242.33,0.07841
7219.18,0.06706
7196.04,0.10192
7172.89,0.07450
7149.75,0.09877
7126.6,0.09986
7103.46,0.12311
7080.31,0.10466
7057.17,0.11157
7034.02,0.09366
7010.88,0.10485
6987.74,0.09661
6964.59,0.09748
6941.45,0.11675
6918.3,0.08650
6895.16,0.11276
6872.01,0.09639
6848.87,0.10009
6825.72,0.10069
6802.58,0.09737
6779.43,0.10431
6756.29,0.10370
6733.15,0.10805
6710,0.11531
6686.86,0.11635
6663.71,0.10377
6640.57,0.11323
6617.42,0.10415
6594.28,0.11940
6571.13,0.10451
6547.99,0.11545
6524.84,0.10386
6501.7,0.11318
6478.55,0.10968
6455.41,0.11503
6432.27,0.11368
6409.12,0.12383
6385.98,0.11414
6362.83,0.11162
6339.69,0.11996
6316.54,0.11473
6293.4,0.11267
6270.25,0.10917
6247.11,0.12107
6223.96,0.11415
6200.82,0.11475
6177.68,0.11081
6154.53,0.11101
6131.39,0.11453
6108.24,0.09715
6085.1,0.08850
6061.95,0.08544
6038.81,0.08260
6015.66,0.05455
5992.52,0.05539
5969.37,0.07218
5946.23,0.07432
5923.08,0.07275
5899.94,0.07427
5876.8,0.08328
5853.65,0.09563
5830.51,0.10366
5807.36,0.10138
5784.22,0.10140
5761.07,0.09543
5737.93,0.10733
5714.78,0.11177
5691.64,0.11365
5668.49,0.11097
5645.35,0.11371
5622.21,0.12077
5599.06,0.12699
5575.92,0.12096
5552.77,0.11883
5529.63,0.12223
5506.48,0.12077
5483.34,0.12063
5460.19,0.12406
5437.05,0.12723
5413.9,0.12678
5390.76,0.12553
5367.61,0.12679
5344.47,0.12594
5321.33,0.12688
5298.18,0.12447
5275.04,0.11805
5251.89,0.12329
5228.75,0.12548
5205.6,0.13275
5182.46,0.12966
5159.31,0.13221
5136.17,0.13409
5113.02,0.13498
5089.88,0.13403
5066.74,0.13510
5043.59,0.13652
5020.45,0.13490
4997.3,0.13326
4974.16,0.13403
4951.01,0.13304
4927.87,0.13465
4904.72,0.13116
4881.58,0.12701
4858.43,0.12641
4835.29,0.12329
4812.14,0.12552
4789,0.12706
4765.86,0.12030
4742.71,0.11304
4719.57,0.09433
4696.42,0.06871
4673.28,0.06736
4650.13,0.07165
4626.99,0.06688
4603.84,0.09509
4580.7,0.08560
4557.55,0.10027
4534.41,0.10816
4511.27,0.10821
4488.12,0.09947
4464.98,0.09510
4441.83,0.08167
4418.69,0.06513
4395.54,0.06471
4372.4,0.06263
4349.25,0.06005
4326.11,0.05853
4302.96,0.06144
4279.82,0.06279
4256.67,0.06678
4233.53,0.06707
4210.39,0.06540
4187.24,0.06193
4164.1,0.06312
4140.95,0.07056
4117.81,0.06760
4094.66,0.05873
4071.52,0.05755
4048.37,0.06224
4025.23,0.07103
4002.08,0.07171
3978.94,0.07164
3955.8,0.07593
3932.65,0.07432
3909.51,0.07217
3886.36,0.06897
3863.22,0.07800
3840.07,0.08857
3816.93,0.08941
3793.78,0.09473
3770.64,0.09806
3747.49,0.08457
3724.35,0.08823
3701.2,0.07165
3678.06,0.05933
3654.92,0.06294
3631.77,0.07444
3608.63,0.08239
3585.48,0.06264
3562.34,0.06049
3539.19,0.05832
3516.05,0.05930
3492.9,0.06832
3469.76,0.07554
3446.61,0.08302
3423.47,0.09125
3400.33,0.09023
3377.18,0.08215
3354.04,0.08377
3330.89,0.08143
3307.75,0.07280
3284.6,0.06771
3261.46,0.06479
3238.31,0.06358
3215.17,0.06179
3192.02,0.05897
3168.88,0.05953
3145.73,0.06004
3122.59,0.05846
3099.45,0.05821
3076.3,0.05859
3053.16,0.05884
3030.01,0.05919
3006.87,0.05809
2983.72,0.05738
2960.58,0.06092
2937.43,0.06031
2914.29,0.06048
2891.14,0.06061
2868,0.06029
2844.86,0.06062
2821.71,0.06214
2798.57,0.06370
2775.42,0.06162
2752.28,0.07125
2729.13,0.06822
2705.99,0.07255
2682.84,0.08383
2659.7,0.08416
2636.55,0.09389
2613.41,0.07006
2590.26,0.06896
2567.12,0.07762
2543.98,0.07611
2520.83,0.07154
2497.69,0.06522
2474.54,0.06201
2451.4,0.06190
2428.25,0.06191
2405.11,0.06152
2381.96,0.06250
2358.82,0.06780
2335.67,0.06608
2312.53,0.06531
2289.39,0.06351
2266.24,0.06127
2243.1,0.06138
2219.95,0.06119
2196.81,0.06109
2173.66,0.06254
2150.52,0.07239
2127.37,0.06528
2104.23,0.06103
2081.08,0.06052
2057.94,0.06017
2034.79,0.06034
2011.65,0.06006
1988.51,0.06021
1965.36,0.06012
1942.22,0.05953
1919.07,0.05876
1895.93,0.05808
1872.78,0.05807
1849.64,0.05631
1826.49,0.05369
1803.35,0.04689
1780.2,0.06037
1757.06,0.07852
1733.92,0.06760
1710.77,0.06349
1687.63,0.06128
1664.48,0.05973
1641.34,0.05913
1618.19,0.05788
1595.05,0.05840
1571.9,0.05740
1548.76,0.05404
1525.61,0.04934
1502.47,0.07230
1479.32,0.06251
1456.18,0.05999
1433.04,0.05687
1409.89,0.05459
1386.75,0.05354
1363.6,0.05244
1340.46,0.04771
1317.31,0.04054
1294.17,0.03510
1271.02,0.02299
1247.88,0.09258
1224.73,0.13615
1201.59,0.09044
1178.45,0.10949
1155.3,0.13600
1132.16,0.09803
1109.01,0.08686
1085.87,0.07719
1062.72,0.08448
1039.58,0.07616
1016.43,0.07834
993.288,0.08535
970.144,0.07942
946.999,0.07688
923.855,0.07448
900.71,0.07054
877.565,0.07495
854.421,0.06582
831.276,0.07815
808.132,0.08451
784.987,0.07506
761.843,0.07922
738.698,0.07743
715.553,0.07496
692.409,0.07584
669.264,0.07489
646.12,0.07239
622.975,0.07039
599.83,0.06692