File: 01_Data/PC/FTIR/IS/PC_1.52_Trans_S_IS_230516_R1.dpt
7496.92,0.91329
7473.77,0.89580
7450.63,0.87924
7427.48,0.87087
7404.34,0.90910
7381.19,0.80383
7358.05,0.83367
7334.9,0.81658
7311.76,0.81681
7288.62,0.82758
7265.47,0.82552
7242.33,0.83231
7219.18,0.82023
7196.04,0.81977
7172.89,0.81718
7149.75,0.83183
7126.6,0.84811
7103.46,0.81350
7080.31,0.86355
7057.17,0.81087
7034.02,0.84122
7010.88,0.85415
6987.74,0.84093
6964.59,0.85697
6941.45,0.85077
6918.3,0.87822
6895.16,0.85072
6872.01,0.86383
6848.87,0.84721
6825.72,0.86957
6802.58,0.87028
6779.43,0.86912
6756.29,0.85816
6733.15,0.86994
6710,0.87766
6686.86,0.87573
6663.71,0.87367
6640.57,0.90261
6617.42,0.89385
6594.28,0.90129
6571.13,0.88980
6547.99,0.89140
6524.84,0.89237
6501.7,0.89138
6478.55,0.89398
6455.41,0.88522
6432.27,0.89529
6409.12,0.88998
6385.98,0.87988
6362.83,0.88308
6339.69,0.88473
6316.54,0.88663
6293.4,0.86415
6270.25,0.87609
6247.11,0.85964
6223.96,0.85201
6200.82,0.83903
6177.68,0.79386
6154.53,0.77825
6131.39,0.73389
6108.24,0.69788
6085.1,0.59582
6061.95,0.52173
6038.81,0.42328
6015.66,0.26220
5992.52,0.19026
5969.37,0.35540
5946.23,0.39396
5923.08,0.36817
5899.94,0.41957
5876.8,0.49391
5853.65,0.60828
5830.51,0.62681
5807.36,0.64108
5784.22,0.61330
5761.07,0.58505
5737.93,0.66099
5714.78,0.73441
5691.64,0.74244
5668.49,0.69757
5645.35,0.71808
5622.21,0.77381
5599.06,0.78634
5575.92,0.78467
5552.77,0.77587
5529.63,0.77652
5506.48,0.76787
5483.34,0.76531
5460.19,0.75710
5437.05,0.77326
5413.9,0.76667
5390.76,0.77618
5367.61,0.78396
5344.47,0.76224
5321.33,0.77815
5298.18,0.76498
5275.04,0.69997
5251.89,0.69706
5228.75,0.76879
5205.6,0.78349
5182.46,0.78898
5159.31,0.79266
5136.17,0.80205
5113.02,0.80899
5089.88,0.80521
5066.74,0.80646
5043.59,0.80756
5020.45,0.80132
4997.3,0.79300
4974.16,0.78504
4951.01,0.77901
4927.87,0.77171
4904.72,0.73449
4881.58,0.71301
4858.43,0.68552
4835.29,0.67587
4812.14,0.69241
4789,0.68339
4765.86,0.64114
4742.71,0.56400
4719.57,0.39636
4696.42,0.16690
4673.28,0.13556
4650.13,0.18826
4626.99,0.13774
4603.84,0.39413
4580.7,0.32379
4557.55,0.43801
4534.41,0.49368
4511.27,0.49490
4488.12,0.40463
4464.98,0.37272
4441.83,0.26561
4418.69,0.11620
4395.54,0.10404
4372.4,0.08405
4349.25,0.05559
4326.11,0.03499
4302.96,0.05572
4279.82,0.07706
4256.67,0.10641
4233.53,0.10617
4210.39,0.08753
4187.24,0.07599
4164.1,0.07420
4140.95,0.13358
4117.81,0.11406
4094.66,0.01772
4071.52,0.00231
4048.37,0.05690
4025.23,0.13697
4002.08,0.13426
3978.94,0.13003
3955.8,0.16694
3932.65,0.14980
3909.51,0.12535
3886.36,0.09553
3863.22,0.17663
3840.07,0.24623
3816.93,0.25037
3793.78,0.29834
3770.64,0.31169
3747.49,0.20462
3724.35,0.23374
3701.2,0.11237
3678.06,0.00962
3654.92,0.03891
3631.77,0.14503
3608.63,0.21160
3585.48,0.04499
3562.34,0.02203
3539.19,0.00582
3516.05,0.01848
3492.9,0.10727
3469.76,0.16312
3446.61,0.23653
3423.47,0.29738
3400.33,0.29323
3377.18,0.23091
3354.04,0.22957
3330.89,0.21568
3307.75,0.14081
3284.6,0.09794
3261.46,0.07474
3238.31,0.05607
3215.17,0.03515
3192.02,0.01120
3168.88,0.01204
3145.73,0.00529
3122.59,0.00037
3099.45,0.00061
3076.3,0.00003
3053.16,0.00020
3030.01,0.00080
3006.87,0.00058
2983.72,0.00036
2960.58,0.00021
2937.43,0.00026
2914.29,0.00024
2891.14,0.00067
2868,0.00025
2844.86,0.00133
2821.71,0.01560
2798.57,0.01884
2775.42,0.00752
2752.28,0.06699
2729.13,0.04974
2705.99,0.07335
2682.84,0.13549
2659.7,0.13192
2636.55,0.18189
2613.41,0.05530
2590.26,0.04730
2567.12,0.09315
2543.98,0.08283
2520.83,0.06240
2497.69,0.02664
2474.54,0.00468
2451.4,0.00424
2428.25,0.00335
2405.11,0.00120
2381.96,0.00627
2358.82,0.02183
2335.67,0.01601
2312.53,0.01679
2289.39,0.01199
2266.24,0.00137
2243.1,0.00037
2219.95,0.00004
2196.81,0.00014
2173.66,0.00662
2150.52,0.05315
2127.37,0.02193
2104.23,0.00553
2081.08,0.00024
2057.94,0.00027
2034.79,0.00059
2011.65,0.00052
1988.51,0.00048
1965.36,0.00354
1942.22,0.00104
1919.07,0.00019
1895.93,0.00032
1872.78,0.00031
1849.64,0.00025
1826.49,0.00063
1803.35,0.00032
1780.2,0.00026
1757.06,0.00021
1733.92,0.00042
1710.77,0.00013
1687.63,0.00069
1664.48,0.00024
1641.34,0.00029
1618.19,0.00042
1595.05,0.00033
1571.9,0.00044
1548.76,0.00009
1525.61,0.00023
1502.47,0.00040
1479.32,0.00041
1456.18,0.00048
1433.04,0.00037
1409.89,0.00053
1386.75,0.00010
1363.6,0.00007
1340.46,0.00050
1317.31,0.00037
1294.17,0.00033
1271.02,0.00032
1247.88,0.00019
1224.73,0.00065
1201.59,0.00012
1178.45,0.00010
1155.3,0.00058
1132.16,0.00071
1109.01,0.00034
1085.87,0.00035
1062.72,0.00063
1039.58,0.00039
1016.43,0.00047
993.288,-0.00004
970.144,-0.00006
946.999,0.00041
923.855,0.00025
900.71,0.00062
877.565,0.00093
854.421,0.00090
831.276,0.00084
808.132,0.00049
784.987,0.00045
761.843,0.00087
738.698,0.00016
715.553,0.00127
692.409,0.00117
669.264,0.00338
646.12,0.00407
622.975,0.00135
599.83,0.00194