File: 01_Data/PC/FTIR/IS/PC_1.52_T_IS_230516_R1.dpt
7496.92,0.06352
7473.77,0.03189
7450.63,0.07019
7427.48,0.05737
7404.34,0.03070
7381.19,0.06741
7358.05,0.08305
7334.9,0.05266
7311.76,0.08282
7288.62,0.04421
7265.47,0.04233
7242.33,0.04253
7219.18,0.03226
7196.04,0.03196
7172.89,0.04630
7149.75,0.05418
7126.6,0.03388
7103.46,0.04629
7080.31,0.04379
7057.17,0.05768
7034.02,0.02578
7010.88,0.04401
6987.74,0.04603
6964.59,0.05278
6941.45,0.02602
6918.3,0.05046
6895.16,0.05083
6872.01,0.04076
6848.87,0.01455
6825.72,0.04262
6802.58,0.04556
6779.43,0.03611
6756.29,0.04262
6733.15,0.03668
6710,0.03763
6686.86,0.04565
6663.71,0.04613
6640.57,0.03350
6617.42,0.03874
6594.28,0.03780
6571.13,0.03475
6547.99,0.02962
6524.84,0.03009
6501.7,0.04664
6478.55,0.03113
6455.41,0.03260
6432.27,0.03480
6409.12,0.03354
6385.98,0.02996
6362.83,0.03983
6339.69,0.02992
6316.54,0.02795
6293.4,0.03122
6270.25,0.04135
6247.11,0.02921
6223.96,0.03296
6200.82,0.02796
6177.68,0.03010
6154.53,0.03241
6131.39,0.02333
6108.24,0.03313
6085.1,0.02627
6061.95,0.03438
6038.81,0.03519
6015.66,0.03225
5992.52,0.02916
5969.37,0.02873
5946.23,0.02869
5923.08,0.02694
5899.94,0.02997
5876.8,0.02536
5853.65,0.03117
5830.51,0.02773
5807.36,0.03063
5784.22,0.02273
5761.07,0.03136
5737.93,0.03192
5714.78,0.02437
5691.64,0.03036
5668.49,0.02947
5645.35,0.02567
5622.21,0.02723
5599.06,0.02813
5575.92,0.02491
5552.77,0.03121
5529.63,0.02437
5506.48,0.03032
5483.34,0.02760
5460.19,0.02953
5437.05,0.02636
5413.9,0.02725
5390.76,0.02528
5367.61,0.02835
5344.47,0.02802
5321.33,0.02486
5298.18,0.02671
5275.04,0.02581
5251.89,0.02327
5228.75,0.02479
5205.6,0.02548
5182.46,0.02510
5159.31,0.02656
5136.17,0.02532
5113.02,0.02268
5089.88,0.02561
5066.74,0.02612
5043.59,0.02406
5020.45,0.02261
4997.3,0.02619
4974.16,0.02491
4951.01,0.02472
4927.87,0.02529
4904.72,0.02543
4881.58,0.02512
4858.43,0.02433
4835.29,0.02517
4812.14,0.02347
4789,0.02531
4765.86,0.02413
4742.71,0.02464
4719.57,0.02379
4696.42,0.02422
4673.28,0.02377
4650.13,0.02356
4626.99,0.02281
4603.84,0.02313
4580.7,0.02436
4557.55,0.02301
4534.41,0.02407
4511.27,0.02437
4488.12,0.02335
4464.98,0.02318
4441.83,0.02373
4418.69,0.02319
4395.54,0.02296
4372.4,0.02382
4349.25,0.02364
4326.11,0.02238
4302.96,0.02381
4279.82,0.02318
4256.67,0.02391
4233.53,0.02441
4210.39,0.02473
4187.24,0.02286
4164.1,0.02297
4140.95,0.02391
4117.81,0.02359
4094.66,0.02413
4071.52,0.02452
4048.37,0.02354
4025.23,0.02334
4002.08,0.02329
3978.94,0.02305
3955.8,0.02398
3932.65,0.02454
3909.51,0.02325
3886.36,0.02437
3863.22,0.02390
3840.07,0.02369
3816.93,0.02359
3793.78,0.02344
3770.64,0.02393
3747.49,0.02539
3724.35,0.02342
3701.2,0.02346
3678.06,0.02350
3654.92,0.02270
3631.77,0.02271
3608.63,0.02288
3585.48,0.02200
3562.34,0.02191
3539.19,0.02257
3516.05,0.02232
3492.9,0.02139
3469.76,0.02134
3446.61,0.02149
3423.47,0.02124
3400.33,0.02220
3377.18,0.02135
3354.04,0.02187
3330.89,0.02167
3307.75,0.02230
3284.6,0.02175
3261.46,0.02213
3238.31,0.02196
3215.17,0.02157
3192.02,0.02186
3168.88,0.02260
3145.73,0.02194
3122.59,0.02166
3099.45,0.02176
3076.3,0.02160
3053.16,0.02219
3030.01,0.02233
3006.87,0.02209
2983.72,0.02126
2960.58,0.02155
2937.43,0.02113
2914.29,0.02156
2891.14,0.02142
2868,0.02178
2844.86,0.02233
2821.71,0.02284
2798.57,0.02219
2775.42,0.02281
2752.28,0.02297
2729.13,0.02274
2705.99,0.02243
2682.84,0.02270
2659.7,0.02276
2636.55,0.02275
2613.41,0.02294
2590.26,0.02281
2567.12,0.02283
2543.98,0.02251
2520.83,0.02294
2497.69,0.02249
2474.54,0.02285
2451.4,0.02251
2428.25,0.02293
2405.11,0.02320
2381.96,0.02315
2358.82,0.02366
2335.67,0.02298
2312.53,0.02281
2289.39,0.02286
2266.24,0.02277
2243.1,0.02258
2219.95,0.02281
2196.81,0.02287
2173.66,0.02290
2150.52,0.02311
2127.37,0.02265
2104.23,0.02287
2081.08,0.02269
2057.94,0.02259
2034.79,0.02294
2011.65,0.02265
1988.51,0.02299
1965.36,0.02271
1942.22,0.02241
1919.07,0.02277
1895.93,0.02266
1872.78,0.02239
1849.64,0.02248
1826.49,0.02244
1803.35,0.02131
1780.2,0.02103
1757.06,0.01974
1733.92,0.02121
1710.77,0.02213
1687.63,0.02111
1664.48,0.02040
1641.34,0.02027
1618.19,0.02082
1595.05,0.02077
1571.9,0.02012
1548.76,0.01983
1525.61,0.02117
1502.47,0.02047
1479.32,0.02083
1456.18,0.02049
1433.04,0.02072
1409.89,0.01994
1386.75,0.01940
1363.6,0.01975
1340.46,0.01971
1317.31,0.01882
1294.17,0.01948
1271.02,0.02096
1247.88,0.02177
1224.73,0.02115
1201.59,0.02048
1178.45,0.01979
1155.3,0.01904
1132.16,0.01942
1109.01,0.02028
1085.87,0.02009
1062.72,0.02167
1039.58,0.02154
1016.43,0.02077
993.288,0.02306
970.144,0.02237
946.999,0.02151
923.855,0.02153
900.71,0.02094
877.565,0.02107
854.421,0.02096
831.276,0.02040
808.132,0.02070
784.987,0.01942
761.843,0.02032
738.698,0.01934
715.553,0.01928
692.409,0.01996
669.264,0.01815
646.12,0.01963
622.975,0.01824
599.83,0.01651