File: 01_Data/PC/FTIR/IS/PC_1.52_S_IS_230516_R2.dpt
7496.92,0.07538
7473.77,0.09103
7450.63,0.04474
7427.48,0.09983
7404.34,0.08454
7381.19,0.05607
7358.05,0.10711
7334.9,0.08390
7311.76,0.10452
7288.62,0.07992
7265.47,0.04133
7242.33,0.07334
7219.18,0.08372
7196.04,0.08817
7172.89,0.11134
7149.75,0.07799
7126.6,0.07568
7103.46,0.10278
7080.31,0.08619
7057.17,0.07091
7034.02,0.09073
7010.88,0.08615
6987.74,0.11177
6964.59,0.09347
6941.45,0.09990
6918.3,0.10262
6895.16,0.08290
6872.01,0.09538
6848.87,0.09442
6825.72,0.09948
6802.58,0.10895
6779.43,0.10759
6756.29,0.09642
6733.15,0.10370
6710,0.09975
6686.86,0.09027
6663.71,0.10840
6640.57,0.11696
6617.42,0.10721
6594.28,0.10389
6571.13,0.10817
6547.99,0.11258
6524.84,0.11170
6501.7,0.11655
6478.55,0.11021
6455.41,0.11283
6432.27,0.10031
6409.12,0.11322
6385.98,0.10903
6362.83,0.11317
6339.69,0.10955
6316.54,0.10597
6293.4,0.11348
6270.25,0.11357
6247.11,0.11030
6223.96,0.10410
6200.82,0.10561
6177.68,0.10090
6154.53,0.10033
6131.39,0.09224
6108.24,0.08543
6085.1,0.07189
6061.95,0.06662
6038.81,0.06038
6015.66,0.04517
5992.52,0.03955
5969.37,0.05392
5946.23,0.05276
5923.08,0.04930
5899.94,0.05651
5876.8,0.06813
5853.65,0.07784
5830.51,0.08399
5807.36,0.08353
5784.22,0.07983
5761.07,0.07538
5737.93,0.08474
5714.78,0.10297
5691.64,0.10399
5668.49,0.09878
5645.35,0.10228
5622.21,0.10855
5599.06,0.11398
5575.92,0.11131
5552.77,0.10784
5529.63,0.10790
5506.48,0.11074
5483.34,0.10780
5460.19,0.10925
5437.05,0.11366
5413.9,0.11302
5390.76,0.11511
5367.61,0.11679
5344.47,0.11276
5321.33,0.11554
5298.18,0.11221
5275.04,0.10191
5251.89,0.10520
5228.75,0.11873
5205.6,0.11893
5182.46,0.11849
5159.31,0.12269
5136.17,0.12502
5113.02,0.12425
5089.88,0.12466
5066.74,0.12450
5043.59,0.12683
5020.45,0.12637
4997.3,0.12441
4974.16,0.12128
4951.01,0.12296
4927.87,0.12106
4904.72,0.11496
4881.58,0.11245
4858.43,0.10768
4835.29,0.10410
4812.14,0.10966
4789,0.10727
4765.86,0.10049
4742.71,0.09038
4719.57,0.07068
4696.42,0.05713
4673.28,0.05282
4650.13,0.05725
4626.99,0.05630
4603.84,0.06962
4580.7,0.06548
4557.55,0.07554
4534.41,0.08271
4511.27,0.08274
4488.12,0.07380
4464.98,0.07103
4441.83,0.06236
4418.69,0.05603
4395.54,0.05577
4372.4,0.05487
4349.25,0.05551
4326.11,0.05567
4302.96,0.05601
4279.82,0.05579
4256.67,0.05755
4233.53,0.05712
4210.39,0.05648
4187.24,0.05752
4164.1,0.05755
4140.95,0.05817
4117.81,0.05807
4094.66,0.05662
4071.52,0.05698
4048.37,0.05708
4025.23,0.05988
4002.08,0.06009
3978.94,0.05936
3955.8,0.06071
3932.65,0.05995
3909.51,0.05997
3886.36,0.05813
3863.22,0.06246
3840.07,0.06719
3816.93,0.06791
3793.78,0.07094
3770.64,0.07309
3747.49,0.06493
3724.35,0.06732
3701.2,0.06054
3678.06,0.05755
3654.92,0.05968
3631.77,0.06108
3608.63,0.06508
3585.48,0.05843
3562.34,0.05773
3539.19,0.05771
3516.05,0.05690
3492.9,0.06079
3469.76,0.06120
3446.61,0.06533
3423.47,0.06962
3400.33,0.06961
3377.18,0.06504
3354.04,0.06546
3330.89,0.06472
3307.75,0.06099
3284.6,0.05946
3261.46,0.05853
3238.31,0.05899
3215.17,0.05872
3192.02,0.05904
3168.88,0.05970
3145.73,0.05826
3122.59,0.05867
3099.45,0.05825
3076.3,0.05796
3053.16,0.05849
3030.01,0.05988
3006.87,0.05784
2983.72,0.05716
2960.58,0.06100
2937.43,0.05981
2914.29,0.06114
2891.14,0.06027
2868,0.06119
2844.86,0.06133
2821.71,0.06075
2798.57,0.06090
2775.42,0.06058
2752.28,0.06121
2729.13,0.06091
2705.99,0.06134
2682.84,0.06423
2659.7,0.06444
2636.55,0.06701
2613.41,0.06123
2590.26,0.06106
2567.12,0.06227
2543.98,0.06209
2520.83,0.06134
2497.69,0.06061
2474.54,0.06071
2451.4,0.06116
2428.25,0.06078
2405.11,0.06122
2381.96,0.06110
2358.82,0.06109
2335.67,0.06170
2312.53,0.06107
2289.39,0.06136
2266.24,0.06077
2243.1,0.06042
2219.95,0.06106
2196.81,0.06092
2173.66,0.06078
2150.52,0.06128
2127.37,0.06088
2104.23,0.06034
2081.08,0.06048
2057.94,0.06005
2034.79,0.06020
2011.65,0.06017
1988.51,0.05946
1965.36,0.05940
1942.22,0.05906
1919.07,0.05871
1895.93,0.05820
1872.78,0.05761
1849.64,0.05619
1826.49,0.05325
1803.35,0.04652
1780.2,0.06015
1757.06,0.07934
1733.92,0.06744
1710.77,0.06433
1687.63,0.06214
1664.48,0.05995
1641.34,0.06013
1618.19,0.05823
1595.05,0.05817
1571.9,0.05723
1548.76,0.05425
1525.61,0.04893
1502.47,0.07270
1479.32,0.06256
1456.18,0.06014
1433.04,0.05731
1409.89,0.05453
1386.75,0.05340
1363.6,0.05214
1340.46,0.04737
1317.31,0.04033
1294.17,0.03470
1271.02,0.02231
1247.88,0.09623
1224.73,0.14050
1201.59,0.09206
1178.45,0.11171
1155.3,0.13881
1132.16,0.09963
1109.01,0.08799
1085.87,0.07821
1062.72,0.08413
1039.58,0.07700
1016.43,0.07962
993.288,0.08694
970.144,0.08026
946.999,0.07783
923.855,0.07553
900.71,0.07090
877.565,0.07537
854.421,0.06614
831.276,0.07761
808.132,0.08480
784.987,0.07556
761.843,0.08057
738.698,0.07713
715.553,0.07627
692.409,0.07660
669.264,0.07470
646.12,0.07312
622.975,0.06896
599.83,0.06893