File: 01_Data/PC/FTIR/IS/PC_1.52_Trans_S_IS_230516_R2.dpt
7496.92,0.87890
7473.77,0.89139
7450.63,0.87406
7427.48,0.85007
7404.34,0.88355
7381.19,0.83629
7358.05,0.82594
7334.9,0.84094
7311.76,0.83244
7288.62,0.82763
7265.47,0.83275
7242.33,0.81243
7219.18,0.81065
7196.04,0.83145
7172.89,0.83175
7149.75,0.82330
7126.6,0.83569
7103.46,0.81020
7080.31,0.82008
7057.17,0.83485
7034.02,0.86103
7010.88,0.84673
6987.74,0.86058
6964.59,0.87137
6941.45,0.86340
6918.3,0.88294
6895.16,0.87534
6872.01,0.87640
6848.87,0.87608
6825.72,0.87564
6802.58,0.87092
6779.43,0.87679
6756.29,0.87815
6733.15,0.87236
6710,0.88552
6686.86,0.88580
6663.71,0.88726
6640.57,0.89527
6617.42,0.88545
6594.28,0.89775
6571.13,0.90101
6547.99,0.90384
6524.84,0.88365
6501.7,0.89212
6478.55,0.89058
6455.41,0.89073
6432.27,0.89468
6409.12,0.89038
6385.98,0.88630
6362.83,0.89005
6339.69,0.88504
6316.54,0.88452
6293.4,0.88316
6270.25,0.87189
6247.11,0.87082
6223.96,0.85399
6200.82,0.84038
6177.68,0.80148
6154.53,0.78122
6131.39,0.74353
6108.24,0.69408
6085.1,0.60425
6061.95,0.52196
6038.81,0.42661
6015.66,0.26500
5992.52,0.18916
5969.37,0.35493
5946.23,0.39817
5923.08,0.36771
5899.94,0.42126
5876.8,0.49222
5853.65,0.60832
5830.51,0.63311
5807.36,0.64277
5784.22,0.61745
5761.07,0.58997
5737.93,0.66284
5714.78,0.73294
5691.64,0.74424
5668.49,0.70105
5645.35,0.72115
5622.21,0.77816
5599.06,0.79059
5575.92,0.78706
5552.77,0.77881
5529.63,0.78100
5506.48,0.77672
5483.34,0.77200
5460.19,0.75874
5437.05,0.77337
5413.9,0.76950
5390.76,0.77769
5367.61,0.78888
5344.47,0.76486
5321.33,0.78186
5298.18,0.76633
5275.04,0.70117
5251.89,0.70167
5228.75,0.77116
5205.6,0.78850
5182.46,0.79237
5159.31,0.79571
5136.17,0.80907
5113.02,0.81262
5089.88,0.81003
5066.74,0.80789
5043.59,0.80970
5020.45,0.80295
4997.3,0.79567
4974.16,0.78675
4951.01,0.78175
4927.87,0.77371
4904.72,0.73505
4881.58,0.71598
4858.43,0.68832
4835.29,0.67760
4812.14,0.69427
4789,0.68507
4765.86,0.64276
4742.71,0.56656
4719.57,0.39852
4696.42,0.16930
4673.28,0.13669
4650.13,0.18889
4626.99,0.13834
4603.84,0.39505
4580.7,0.32405
4557.55,0.43789
4534.41,0.49394
4511.27,0.49775
4488.12,0.40756
4464.98,0.37440
4441.83,0.26589
4418.69,0.11653
4395.54,0.10319
4372.4,0.08435
4349.25,0.05475
4326.11,0.03491
4302.96,0.05613
4279.82,0.07854
4256.67,0.10523
4233.53,0.10634
4210.39,0.08677
4187.24,0.07712
4164.1,0.07446
4140.95,0.13509
4117.81,0.11424
4094.66,0.01851
4071.52,0.00233
4048.37,0.05780
4025.23,0.13722
4002.08,0.13505
3978.94,0.13049
3955.8,0.16693
3932.65,0.14997
3909.51,0.12542
3886.36,0.09566
3863.22,0.17735
3840.07,0.24732
3816.93,0.25137
3793.78,0.30015
3770.64,0.31251
3747.49,0.20538
3724.35,0.23638
3701.2,0.11368
3678.06,0.00955
3654.92,0.04177
3631.77,0.14836
3608.63,0.21370
3585.48,0.04690
3562.34,0.02332
3539.19,0.00576
3516.05,0.01813
3492.9,0.10887
3469.76,0.16494
3446.61,0.23917
3423.47,0.29996
3400.33,0.29477
3377.18,0.23180
3354.04,0.23107
3330.89,0.21652
3307.75,0.14175
3284.6,0.09795
3261.46,0.07444
3238.31,0.05588
3215.17,0.03561
3192.02,0.01204
3168.88,0.01218
3145.73,0.00555
3122.59,0.00065
3099.45,0.00079
3076.3,0.00027
3053.16,0.00026
3030.01,0.00037
3006.87,0.00057
2983.72,0.00017
2960.58,0.00033
2937.43,0.00024
2914.29,0.00043
2891.14,0.00074
2868,0.00031
2844.86,0.00160
2821.71,0.01618
2798.57,0.01917
2775.42,0.00688
2752.28,0.06690
2729.13,0.05010
2705.99,0.07355
2682.84,0.13501
2659.7,0.13221
2636.55,0.18186
2613.41,0.05497
2590.26,0.04721
2567.12,0.09347
2543.98,0.08306
2520.83,0.06290
2497.69,0.02687
2474.54,0.00465
2451.4,0.00434
2428.25,0.00343
2405.11,0.00110
2381.96,0.00589
2358.82,0.02254
2335.67,0.01716
2312.53,0.01780
2289.39,0.01221
2266.24,0.00106
2243.1,0.00009
2219.95,0.00055
2196.81,0.00030
2173.66,0.00647
2150.52,0.05280
2127.37,0.02233
2104.23,0.00533
2081.08,0.00049
2057.94,0.00032
2034.79,0.00048
2011.65,0.00021
1988.51,0.00058
1965.36,0.00370
1942.22,0.00112
1919.07,0.00028
1895.93,0.00011
1872.78,0.00037
1849.64,0.00031
1826.49,0.00021
1803.35,0.00008
1780.2,0.00029
1757.06,0.00031
1733.92,0.00071
1710.77,0.00021
1687.63,0.00035
1664.48,0.00046
1641.34,0.00023
1618.19,0.00040
1595.05,0.00028
1571.9,0.00039
1548.76,0.00026
1525.61,0.00033
1502.47,0.00001
1479.32,0.00014
1456.18,0.00037
1433.04,0.00014
1409.89,0.00041
1386.75,0.00026
1363.6,0.00022
1340.46,0.00048
1317.31,0.00052
1294.17,0.00027
1271.02,0.00041
1247.88,0.00030
1224.73,0.00055
1201.59,0.00031
1178.45,0.00037
1155.3,0.00048
1132.16,0.00050
1109.01,0.00037
1085.87,0.00047
1062.72,0.00000
1039.58,0.00003
1016.43,0.00041
993.288,0.00041
970.144,0.00029
946.999,0.00057
923.855,0.00035
900.71,0.00015
877.565,0.00062
854.421,0.00032
831.276,0.00105
808.132,0.00060
784.987,-0.00008
761.843,0.00093
738.698,0.00075
715.553,0.00082
692.409,0.00070
669.264,0.00228
646.12,0.00420
622.975,0.00131
599.83,0.00306