File: 01_Data/PC/FTIR/IS/PC_1.52_S_IS_230516_R1.dpt
7496.92,0.08260
7473.77,0.11054
7450.63,0.06732
7427.48,0.11682
7404.34,0.09801
7381.19,0.09626
7358.05,0.09477
7334.9,0.08969
7311.76,0.08038
7288.62,0.06965
7265.47,0.08599
7242.33,0.07602
7219.18,0.07405
7196.04,0.09791
7172.89,0.10804
7149.75,0.08065
7126.6,0.11037
7103.46,0.09061
7080.31,0.09270
7057.17,0.08686
7034.02,0.09084
7010.88,0.11517
6987.74,0.08210
6964.59,0.10646
6941.45,0.10344
6918.3,0.09863
6895.16,0.11084
6872.01,0.10298
6848.87,0.11721
6825.72,0.09844
6802.58,0.10473
6779.43,0.10435
6756.29,0.10809
6733.15,0.11461
6710,0.12574
6686.86,0.11786
6663.71,0.09490
6640.57,0.11593
6617.42,0.10485
6594.28,0.11577
6571.13,0.11670
6547.99,0.11482
6524.84,0.10772
6501.7,0.10505
6478.55,0.10563
6455.41,0.12291
6432.27,0.11348
6409.12,0.10935
6385.98,0.11176
6362.83,0.11958
6339.69,0.12348
6316.54,0.11443
6293.4,0.11195
6270.25,0.11189
6247.11,0.11802
6223.96,0.10832
6200.82,0.09915
6177.68,0.09978
6154.53,0.09708
6131.39,0.08656
6108.24,0.09840
6085.1,0.06879
6061.95,0.06254
6038.81,0.04781
6015.66,0.04264
5992.52,0.04240
5969.37,0.04734
5946.23,0.05703
5923.08,0.04771
5899.94,0.05526
5876.8,0.06246
5853.65,0.08227
5830.51,0.08268
5807.36,0.08218
5784.22,0.07669
5761.07,0.07382
5737.93,0.08858
5714.78,0.10065
5691.64,0.10107
5668.49,0.09331
5645.35,0.10152
5622.21,0.10922
5599.06,0.11064
5575.92,0.11108
5552.77,0.11072
5529.63,0.10724
5506.48,0.11167
5483.34,0.10940
5460.19,0.10768
5437.05,0.11404
5413.9,0.11164
5390.76,0.11207
5367.61,0.11734
5344.47,0.11668
5321.33,0.11412
5298.18,0.11049
5275.04,0.10137
5251.89,0.10459
5228.75,0.11640
5205.6,0.11985
5182.46,0.11716
5159.31,0.12012
5136.17,0.12046
5113.02,0.12382
5089.88,0.12459
5066.74,0.12580
5043.59,0.12585
5020.45,0.12451
4997.3,0.12199
4974.16,0.12118
4951.01,0.12121
4927.87,0.12084
4904.72,0.11363
4881.58,0.10896
4858.43,0.10735
4835.29,0.10628
4812.14,0.10816
4789,0.10639
4765.86,0.09973
4742.71,0.09163
4719.57,0.07108
4696.42,0.05647
4673.28,0.05673
4650.13,0.05534
4626.99,0.05507
4603.84,0.06998
4580.7,0.06547
4557.55,0.07608
4534.41,0.08202
4511.27,0.08349
4488.12,0.07284
4464.98,0.07022
4441.83,0.06134
4418.69,0.05659
4395.54,0.05611
4372.4,0.05419
4349.25,0.05631
4326.11,0.05557
4302.96,0.05624
4279.82,0.05497
4256.67,0.05831
4233.53,0.05665
4210.39,0.05756
4187.24,0.05729
4164.1,0.05756
4140.95,0.05855
4117.81,0.05826
4094.66,0.05697
4071.52,0.05787
4048.37,0.05755
4025.23,0.05940
4002.08,0.05919
3978.94,0.05936
3955.8,0.06150
3932.65,0.05973
3909.51,0.05959
3886.36,0.05887
3863.22,0.06186
3840.07,0.06661
3816.93,0.06842
3793.78,0.06974
3770.64,0.07148
3747.49,0.06370
3724.35,0.06739
3701.2,0.05977
3678.06,0.05774
3654.92,0.05875
3631.77,0.06046
3608.63,0.06392
3585.48,0.05888
3562.34,0.05823
3539.19,0.05792
3516.05,0.05861
3492.9,0.05910
3469.76,0.06137
3446.61,0.06563
3423.47,0.06964
3400.33,0.06922
3377.18,0.06491
3354.04,0.06606
3330.89,0.06312
3307.75,0.06088
3284.6,0.05846
3261.46,0.05865
3238.31,0.05793
3215.17,0.05872
3192.02,0.05893
3168.88,0.05774
3145.73,0.05856
3122.59,0.05798
3099.45,0.05861
3076.3,0.05840
3053.16,0.05894
3030.01,0.05859
3006.87,0.05857
2983.72,0.05757
2960.58,0.06142
2937.43,0.06021
2914.29,0.06011
2891.14,0.06020
2868,0.06049
2844.86,0.06079
2821.71,0.06044
2798.57,0.06057
2775.42,0.06078
2752.28,0.06113
2729.13,0.06086
2705.99,0.06233
2682.84,0.06415
2659.7,0.06404
2636.55,0.06729
2613.41,0.06121
2590.26,0.06130
2567.12,0.06253
2543.98,0.06239
2520.83,0.06159
2497.69,0.06103
2474.54,0.06061
2451.4,0.06105
2428.25,0.06063
2405.11,0.06104
2381.96,0.06135
2358.82,0.06194
2335.67,0.06150
2312.53,0.06115
2289.39,0.06087
2266.24,0.06070
2243.1,0.06080
2219.95,0.06088
2196.81,0.06145
2173.66,0.06104
2150.52,0.06117
2127.37,0.06063
2104.23,0.06042
2081.08,0.06014
2057.94,0.05992
2034.79,0.06003
2011.65,0.06004
1988.51,0.05994
1965.36,0.05930
1942.22,0.05877
1919.07,0.05852
1895.93,0.05793
1872.78,0.05710
1849.64,0.05588
1826.49,0.05322
1803.35,0.04674
1780.2,0.05978
1757.06,0.07923
1733.92,0.06710
1710.77,0.06424
1687.63,0.06167
1664.48,0.05947
1641.34,0.05945
1618.19,0.05865
1595.05,0.05877
1571.9,0.05701
1548.76,0.05394
1525.61,0.04898
1502.47,0.07252
1479.32,0.06286
1456.18,0.05973
1433.04,0.05665
1409.89,0.05422
1386.75,0.05344
1363.6,0.05204
1340.46,0.04769
1317.31,0.04031
1294.17,0.03437
1271.02,0.02240
1247.88,0.09632
1224.73,0.14002
1201.59,0.09211
1178.45,0.11124
1155.3,0.13889
1132.16,0.09909
1109.01,0.08776
1085.87,0.07755
1062.72,0.08445
1039.58,0.07685
1016.43,0.07929
993.288,0.08677
970.144,0.08034
946.999,0.07687
923.855,0.07456
900.71,0.07089
877.565,0.07461
854.421,0.06586
831.276,0.07836
808.132,0.08482
784.987,0.07473
761.843,0.07953
738.698,0.07792
715.553,0.07624
692.409,0.07716
669.264,0.07464
646.12,0.07257
622.975,0.07290
599.83,0.06893