File: 01_Data/PC/FTIR/IS/PC_1.52_S_IS_230516_R3.dpt
7496.92,0.07957
7473.77,0.05616
7450.63,0.07121
7427.48,0.09948
7404.34,0.05209
7381.19,0.05715
7358.05,0.09306
7334.9,0.09360
7311.76,0.06986
7288.62,0.08572
7265.47,0.09033
7242.33,0.06684
7219.18,0.09430
7196.04,0.09494
7172.89,0.08201
7149.75,0.09012
7126.6,0.09243
7103.46,0.08795
7080.31,0.09670
7057.17,0.10456
7034.02,0.09233
7010.88,0.08270
6987.74,0.10871
6964.59,0.10184
6941.45,0.08054
6918.3,0.10308
6895.16,0.09229
6872.01,0.10933
6848.87,0.08868
6825.72,0.09655
6802.58,0.09541
6779.43,0.11102
6756.29,0.11184
6733.15,0.09335
6710,0.10668
6686.86,0.10437
6663.71,0.10646
6640.57,0.10785
6617.42,0.10461
6594.28,0.10740
6571.13,0.10963
6547.99,0.11217
6524.84,0.10408
6501.7,0.11197
6478.55,0.11493
6455.41,0.12051
6432.27,0.11876
6409.12,0.11243
6385.98,0.11676
6362.83,0.10853
6339.69,0.10616
6316.54,0.11825
6293.4,0.11317
6270.25,0.11755
6247.11,0.11229
6223.96,0.10894
6200.82,0.09943
6177.68,0.10192
6154.53,0.09758
6131.39,0.09260
6108.24,0.08860
6085.1,0.07115
6061.95,0.06134
6038.81,0.06069
6015.66,0.04448
5992.52,0.04026
5969.37,0.05117
5946.23,0.05040
5923.08,0.04669
5899.94,0.05407
5876.8,0.06001
5853.65,0.07902
5830.51,0.07907
5807.36,0.08504
5784.22,0.08147
5761.07,0.07631
5737.93,0.09137
5714.78,0.09742
5691.64,0.09728
5668.49,0.09846
5645.35,0.09533
5622.21,0.10587
5599.06,0.10951
5575.92,0.11118
5552.77,0.11107
5529.63,0.10634
5506.48,0.11082
5483.34,0.11105
5460.19,0.10939
5437.05,0.11347
5413.9,0.11527
5390.76,0.11153
5367.61,0.11561
5344.47,0.10976
5321.33,0.11389
5298.18,0.11134
5275.04,0.10022
5251.89,0.10353
5228.75,0.11600
5205.6,0.11602
5182.46,0.11885
5159.31,0.12077
5136.17,0.11929
5113.02,0.12336
5089.88,0.12441
5066.74,0.12127
5043.59,0.12330
5020.45,0.12303
4997.3,0.12298
4974.16,0.12166
4951.01,0.12068
4927.87,0.11977
4904.72,0.11361
4881.58,0.10834
4858.43,0.10439
4835.29,0.10275
4812.14,0.10599
4789,0.10667
4765.86,0.10080
4742.71,0.08970
4719.57,0.07056
4696.42,0.05626
4673.28,0.05464
4650.13,0.05644
4626.99,0.05504
4603.84,0.07077
4580.7,0.06432
4557.55,0.07618
4534.41,0.08357
4511.27,0.08372
4488.12,0.07334
4464.98,0.07023
4441.83,0.06197
4418.69,0.05616
4395.54,0.05609
4372.4,0.05464
4349.25,0.05513
4326.11,0.05547
4302.96,0.05551
4279.82,0.05586
4256.67,0.05744
4233.53,0.05695
4210.39,0.05682
4187.24,0.05686
4164.1,0.05639
4140.95,0.05855
4117.81,0.05679
4094.66,0.05606
4071.52,0.05678
4048.37,0.05648
4025.23,0.05959
4002.08,0.05927
3978.94,0.05877
3955.8,0.06104
3932.65,0.05957
3909.51,0.05895
3886.36,0.05889
3863.22,0.06092
3840.07,0.06749
3816.93,0.06735
3793.78,0.07093
3770.64,0.07221
3747.49,0.06535
3724.35,0.06677
3701.2,0.06022
3678.06,0.05750
3654.92,0.05833
3631.77,0.05989
3608.63,0.06311
3585.48,0.05896
3562.34,0.05883
3539.19,0.05689
3516.05,0.05786
3492.9,0.05885
3469.76,0.06085
3446.61,0.06528
3423.47,0.06965
3400.33,0.06909
3377.18,0.06448
3354.04,0.06466
3330.89,0.06299
3307.75,0.06085
3284.6,0.05900
3261.46,0.05787
3238.31,0.05819
3215.17,0.05795
3192.02,0.05821
3168.88,0.05753
3145.73,0.05850
3122.59,0.05827
3099.45,0.05877
3076.3,0.05768
3053.16,0.05870
3030.01,0.05849
3006.87,0.05812
2983.72,0.05696
2960.58,0.06050
2937.43,0.06061
2914.29,0.06034
2891.14,0.06013
2868,0.06069
2844.86,0.06087
2821.71,0.06051
2798.57,0.06094
2775.42,0.06015
2752.28,0.06070
2729.13,0.06066
2705.99,0.06100
2682.84,0.06313
2659.7,0.06342
2636.55,0.06728
2613.41,0.06145
2590.26,0.06050
2567.12,0.06205
2543.98,0.06216
2520.83,0.06108
2497.69,0.06039
2474.54,0.06080
2451.4,0.06040
2428.25,0.06078
2405.11,0.06052
2381.96,0.06070
2358.82,0.06108
2335.67,0.06048
2312.53,0.06036
2289.39,0.06041
2266.24,0.06008
2243.1,0.06035
2219.95,0.06011
2196.81,0.06051
2173.66,0.06030
2150.52,0.06107
2127.37,0.06004
2104.23,0.05966
2081.08,0.05991
2057.94,0.05978
2034.79,0.05976
2011.65,0.05944
1988.51,0.05930
1965.36,0.05885
1942.22,0.05853
1919.07,0.05776
1895.93,0.05731
1872.78,0.05678
1849.64,0.05551
1826.49,0.05275
1803.35,0.04638
1780.2,0.06002
1757.06,0.07862
1733.92,0.06632
1710.77,0.06329
1687.63,0.06119
1664.48,0.05930
1641.34,0.05879
1618.19,0.05762
1595.05,0.05824
1571.9,0.05635
1548.76,0.05385
1525.61,0.04885
1502.47,0.07182
1479.32,0.06222
1456.18,0.06005
1433.04,0.05623
1409.89,0.05398
1386.75,0.05280
1363.6,0.05155
1340.46,0.04749
1317.31,0.04014
1294.17,0.03402
1271.02,0.02176
1247.88,0.09537
1224.73,0.13916
1201.59,0.09113
1178.45,0.11108
1155.3,0.13788
1132.16,0.09864
1109.01,0.08718
1085.87,0.07763
1062.72,0.08391
1039.58,0.07615
1016.43,0.07839
993.288,0.08630
970.144,0.07996
946.999,0.07617
923.855,0.07487
900.71,0.07121
877.565,0.07505
854.421,0.06567
831.276,0.07721
808.132,0.08473
784.987,0.07423
761.843,0.07973
738.698,0.07675
715.553,0.07535
692.409,0.07697
669.264,0.07408
646.12,0.07317
622.975,0.07080
599.83,0.06865