File: 01_Data/PC/FTIR/IS/PC_1.52_T_IS_230516_R3.dpt
7496.92,0.04959
7473.77,0.05375
7450.63,0.04625
7427.48,0.06191
7404.34,0.05242
7381.19,0.02684
7358.05,0.03909
7334.9,0.05982
7311.76,0.03960
7288.62,0.06383
7265.47,0.04746
7242.33,0.05085
7219.18,0.05872
7196.04,0.02901
7172.89,0.03835
7149.75,0.05895
7126.6,0.05390
7103.46,0.04748
7080.31,0.03946
7057.17,0.04617
7034.02,0.05178
7010.88,0.02665
6987.74,0.04874
6964.59,0.04852
6941.45,0.03387
6918.3,0.03937
6895.16,0.04217
6872.01,0.04443
6848.87,0.02433
6825.72,0.03084
6802.58,0.04855
6779.43,0.04087
6756.29,0.04858
6733.15,0.04536
6710,0.03658
6686.86,0.03533
6663.71,0.03822
6640.57,0.04608
6617.42,0.03879
6594.28,0.03568
6571.13,0.02974
6547.99,0.03817
6524.84,0.02211
6501.7,0.03794
6478.55,0.02472
6455.41,0.04382
6432.27,0.03440
6409.12,0.03092
6385.98,0.03782
6362.83,0.03732
6339.69,0.03530
6316.54,0.02341
6293.4,0.04137
6270.25,0.03461
6247.11,0.02885
6223.96,0.03083
6200.82,0.02948
6177.68,0.03215
6154.53,0.03561
6131.39,0.02304
6108.24,0.03255
6085.1,0.02879
6061.95,0.03374
6038.81,0.03066
6015.66,0.03222
5992.52,0.02737
5969.37,0.02963
5946.23,0.02722
5923.08,0.03060
5899.94,0.02505
5876.8,0.03445
5853.65,0.02957
5830.51,0.02708
5807.36,0.02689
5784.22,0.02817
5761.07,0.02524
5737.93,0.03102
5714.78,0.02629
5691.64,0.02540
5668.49,0.03150
5645.35,0.03059
5622.21,0.02755
5599.06,0.02615
5575.92,0.02647
5552.77,0.02681
5529.63,0.02426
5506.48,0.02714
5483.34,0.03027
5460.19,0.02698
5437.05,0.02819
5413.9,0.02674
5390.76,0.02677
5367.61,0.02830
5344.47,0.02178
5321.33,0.02693
5298.18,0.02409
5275.04,0.02446
5251.89,0.02633
5228.75,0.02796
5205.6,0.02726
5182.46,0.02307
5159.31,0.02511
5136.17,0.02475
5113.02,0.02528
5089.88,0.02426
5066.74,0.02355
5043.59,0.02466
5020.45,0.02590
4997.3,0.02373
4974.16,0.02486
4951.01,0.02503
4927.87,0.02572
4904.72,0.02265
4881.58,0.02533
4858.43,0.02468
4835.29,0.02395
4812.14,0.02521
4789,0.02485
4765.86,0.02475
4742.71,0.02573
4719.57,0.02560
4696.42,0.02259
4673.28,0.02359
4650.13,0.02459
4626.99,0.02110
4603.84,0.02378
4580.7,0.02407
4557.55,0.02434
4534.41,0.02466
4511.27,0.02522
4488.12,0.02395
4464.98,0.02282
4441.83,0.02322
4418.69,0.02215
4395.54,0.02395
4372.4,0.02343
4349.25,0.02419
4326.11,0.02301
4302.96,0.02360
4279.82,0.02251
4256.67,0.02226
4233.53,0.02415
4210.39,0.02341
4187.24,0.02409
4164.1,0.02306
4140.95,0.02370
4117.81,0.02486
4094.66,0.02337
4071.52,0.02272
4048.37,0.02452
4025.23,0.02274
4002.08,0.02348
3978.94,0.02451
3955.8,0.02413
3932.65,0.02309
3909.51,0.02392
3886.36,0.02327
3863.22,0.02350
3840.07,0.02475
3816.93,0.02346
3793.78,0.02394
3770.64,0.02358
3747.49,0.02426
3724.35,0.02477
3701.2,0.02346
3678.06,0.02390
3654.92,0.02384
3631.77,0.02285
3608.63,0.02419
3585.48,0.02304
3562.34,0.02125
3539.19,0.02222
3516.05,0.02202
3492.9,0.02169
3469.76,0.02265
3446.61,0.02183
3423.47,0.02153
3400.33,0.02171
3377.18,0.02155
3354.04,0.02166
3330.89,0.02277
3307.75,0.02084
3284.6,0.02109
3261.46,0.02198
3238.31,0.02151
3215.17,0.02224
3192.02,0.02237
3168.88,0.02208
3145.73,0.02305
3122.59,0.02242
3099.45,0.02214
3076.3,0.02247
3053.16,0.02250
3030.01,0.02221
3006.87,0.02218
2983.72,0.02080
2960.58,0.02136
2937.43,0.02124
2914.29,0.02212
2891.14,0.02190
2868,0.02203
2844.86,0.02271
2821.71,0.02277
2798.57,0.02290
2775.42,0.02221
2752.28,0.02303
2729.13,0.02262
2705.99,0.02262
2682.84,0.02255
2659.7,0.02310
2636.55,0.02288
2613.41,0.02309
2590.26,0.02309
2567.12,0.02278
2543.98,0.02301
2520.83,0.02304
2497.69,0.02247
2474.54,0.02315
2451.4,0.02301
2428.25,0.02304
2405.11,0.02292
2381.96,0.02279
2358.82,0.02348
2335.67,0.02332
2312.53,0.02302
2289.39,0.02320
2266.24,0.02272
2243.1,0.02257
2219.95,0.02280
2196.81,0.02232
2173.66,0.02320
2150.52,0.02290
2127.37,0.02277
2104.23,0.02319
2081.08,0.02265
2057.94,0.02288
2034.79,0.02290
2011.65,0.02310
1988.51,0.02284
1965.36,0.02271
1942.22,0.02276
1919.07,0.02320
1895.93,0.02302
1872.78,0.02306
1849.64,0.02251
1826.49,0.02249
1803.35,0.02193
1780.2,0.02157
1757.06,0.01967
1733.92,0.02098
1710.77,0.02306
1687.63,0.02084
1664.48,0.02016
1641.34,0.02056
1618.19,0.02064
1595.05,0.02057
1571.9,0.02049
1548.76,0.02075
1525.61,0.02111
1502.47,0.02083
1479.32,0.02045
1456.18,0.02023
1433.04,0.02057
1409.89,0.02049
1386.75,0.02032
1363.6,0.02019
1340.46,0.01985
1317.31,0.01882
1294.17,0.01921
1271.02,0.02078
1247.88,0.02178
1224.73,0.02114
1201.59,0.02052
1178.45,0.01962
1155.3,0.01929
1132.16,0.01974
1109.01,0.02045
1085.87,0.01932
1062.72,0.02193
1039.58,0.02141
1016.43,0.02120
993.288,0.02292
970.144,0.02187
946.999,0.02197
923.855,0.02170
900.71,0.02164
877.565,0.02094
854.421,0.02023
831.276,0.02169
808.132,0.02147
784.987,0.02103
761.843,0.01931
738.698,0.01979
715.553,0.02000
692.409,0.02052
669.264,0.02055
646.12,0.01960
622.975,0.01723
599.83,0.01540