File: 01_Data/PC/FTIR/IS/PC_1.52_Trans_S_IS_230516_R3.dpt
7496.92,0.90408
7473.77,0.89477
7450.63,0.88666
7427.48,0.84335
7404.34,0.86652
7381.19,0.81533
7358.05,0.82216
7334.9,0.82537
7311.76,0.81788
7288.62,0.82402
7265.47,0.80975
7242.33,0.80649
7219.18,0.81872
7196.04,0.84017
7172.89,0.83342
7149.75,0.81294
7126.6,0.82878
7103.46,0.81310
7080.31,0.83837
7057.17,0.82767
7034.02,0.84179
7010.88,0.84409
6987.74,0.85513
6964.59,0.87194
6941.45,0.85577
6918.3,0.88104
6895.16,0.87634
6872.01,0.88136
6848.87,0.87796
6825.72,0.87464
6802.58,0.87392
6779.43,0.86123
6756.29,0.87627
6733.15,0.88104
6710,0.89729
6686.86,0.87684
6663.71,0.89034
6640.57,0.89995
6617.42,0.88781
6594.28,0.90837
6571.13,0.89532
6547.99,0.88846
6524.84,0.89140
6501.7,0.89602
6478.55,0.89665
6455.41,0.88991
6432.27,0.89329
6409.12,0.88901
6385.98,0.88513
6362.83,0.88364
6339.69,0.88100
6316.54,0.88456
6293.4,0.86988
6270.25,0.87719
6247.11,0.85928
6223.96,0.84914
6200.82,0.83500
6177.68,0.79447
6154.53,0.77775
6131.39,0.73959
6108.24,0.70691
6085.1,0.59684
6061.95,0.52101
6038.81,0.42464
6015.66,0.26608
5992.52,0.19380
5969.37,0.35463
5946.23,0.39610
5923.08,0.36633
5899.94,0.41922
5876.8,0.48796
5853.65,0.61194
5830.51,0.63405
5807.36,0.63865
5784.22,0.61761
5761.07,0.59233
5737.93,0.66095
5714.78,0.73523
5691.64,0.74291
5668.49,0.70118
5645.35,0.72138
5622.21,0.77427
5599.06,0.79033
5575.92,0.78331
5552.77,0.77848
5529.63,0.77682
5506.48,0.77510
5483.34,0.76893
5460.19,0.75905
5437.05,0.77554
5413.9,0.77093
5390.76,0.77790
5367.61,0.78892
5344.47,0.76406
5321.33,0.77959
5298.18,0.76433
5275.04,0.70253
5251.89,0.70359
5228.75,0.77043
5205.6,0.78642
5182.46,0.79268
5159.31,0.79433
5136.17,0.80748
5113.02,0.81049
5089.88,0.80811
5066.74,0.80805
5043.59,0.80999
5020.45,0.80411
4997.3,0.79521
4974.16,0.78496
4951.01,0.78100
4927.87,0.77252
4904.72,0.73598
4881.58,0.71534
4858.43,0.68749
4835.29,0.67597
4812.14,0.69464
4789,0.68366
4765.86,0.64187
4742.71,0.56385
4719.57,0.39830
4696.42,0.16822
4673.28,0.13671
4650.13,0.18796
4626.99,0.13808
4603.84,0.39456
4580.7,0.32231
4557.55,0.43675
4534.41,0.49376
4511.27,0.49616
4488.12,0.40764
4464.98,0.37421
4441.83,0.26656
4418.69,0.11747
4395.54,0.10374
4372.4,0.08464
4349.25,0.05550
4326.11,0.03547
4302.96,0.05550
4279.82,0.07792
4256.67,0.10616
4233.53,0.10661
4210.39,0.08733
4187.24,0.07641
4164.1,0.07401
4140.95,0.13413
4117.81,0.11380
4094.66,0.01862
4071.52,0.00247
4048.37,0.05772
4025.23,0.13699
4002.08,0.13506
3978.94,0.13030
3955.8,0.16737
3932.65,0.14997
3909.51,0.12498
3886.36,0.09700
3863.22,0.17800
3840.07,0.24794
3816.93,0.25199
3793.78,0.29968
3770.64,0.31339
3747.49,0.20737
3724.35,0.23874
3701.2,0.11456
3678.06,0.00961
3654.92,0.04214
3631.77,0.15046
3608.63,0.21632
3585.48,0.04785
3562.34,0.02299
3539.19,0.00596
3516.05,0.01737
3492.9,0.10881
3469.76,0.16534
3446.61,0.23918
3423.47,0.30065
3400.33,0.29504
3377.18,0.23144
3354.04,0.23088
3330.89,0.21608
3307.75,0.14087
3284.6,0.09824
3261.46,0.07448
3238.31,0.05649
3215.17,0.03500
3192.02,0.01191
3168.88,0.01191
3145.73,0.00512
3122.59,0.00039
3099.45,0.00051
3076.3,0.00032
3053.16,0.00046
3030.01,0.00067
3006.87,0.00012
2983.72,0.00020
2960.58,0.00078
2937.43,0.00027
2914.29,0.00027
2891.14,0.00012
2868,0.00057
2844.86,0.00151
2821.71,0.01542
2798.57,0.01906
2775.42,0.00685
2752.28,0.06652
2729.13,0.04974
2705.99,0.07329
2682.84,0.13514
2659.7,0.13188
2636.55,0.18110
2613.41,0.05520
2590.26,0.04721
2567.12,0.09269
2543.98,0.08281
2520.83,0.06260
2497.69,0.02686
2474.54,0.00460
2451.4,0.00395
2428.25,0.00324
2405.11,0.00111
2381.96,0.00612
2358.82,0.02456
2335.67,0.01727
2312.53,0.01795
2289.39,0.01220
2266.24,0.00146
2243.1,0.00011
2219.95,0.00022
2196.81,0.00006
2173.66,0.00628
2150.52,0.05262
2127.37,0.02229
2104.23,0.00543
2081.08,0.00006
2057.94,0.00018
2034.79,0.00054
2011.65,0.00034
1988.51,0.00043
1965.36,0.00379
1942.22,0.00101
1919.07,0.00020
1895.93,0.00039
1872.78,0.00034
1849.64,0.00038
1826.49,0.00026
1803.35,0.00023
1780.2,0.00034
1757.06,0.00019
1733.92,0.00058
1710.77,0.00039
1687.63,0.00018
1664.48,0.00008
1641.34,0.00027
1618.19,0.00024
1595.05,0.00034
1571.9,0.00044
1548.76,0.00049
1525.61,0.00022
1502.47,0.00019
1479.32,0.00032
1456.18,0.00074
1433.04,0.00016
1409.89,0.00022
1386.75,0.00031
1363.6,0.00042
1340.46,0.00016
1317.31,0.00046
1294.17,0.00000
1271.02,0.00017
1247.88,0.00039
1224.73,0.00051
1201.59,0.00038
1178.45,0.00034
1155.3,0.00036
1132.16,0.00066
1109.01,0.00080
1085.87,0.00082
1062.72,0.00117
1039.58,0.00019
1016.43,0.00036
993.288,0.00038
970.144,0.00026
946.999,0.00034
923.855,0.00023
900.71,0.00001
877.565,0.00041
854.421,0.00008
831.276,0.00059
808.132,0.00106
784.987,0.00062
761.843,0.00072
738.698,0.00052
715.553,0.00092
692.409,0.00097
669.264,0.00352
646.12,0.00533
622.975,0.00080
599.83,0.00147