File: 01_Data/PC/FTIR/IS/PC_1.52_T_IS_230516_R2.dpt
7496.92,0.03862
7473.77,0.05577
7450.63,0.02668
7427.48,0.05100
7404.34,0.06950
7381.19,0.06871
7358.05,0.04426
7334.9,0.04350
7311.76,0.04777
7288.62,0.03470
7265.47,0.06061
7242.33,0.02789
7219.18,0.05290
7196.04,0.03032
7172.89,0.07212
7149.75,0.04709
7126.6,0.08363
7103.46,0.02632
7080.31,0.03260
7057.17,0.05134
7034.02,0.05171
7010.88,0.05166
6987.74,0.04561
6964.59,0.03989
6941.45,0.03616
6918.3,0.04848
6895.16,0.04000
6872.01,0.04828
6848.87,0.02944
6825.72,0.03511
6802.58,0.03501
6779.43,0.03788
6756.29,0.03154
6733.15,0.02833
6710,0.03459
6686.86,0.04543
6663.71,0.03574
6640.57,0.03681
6617.42,0.03526
6594.28,0.03332
6571.13,0.03136
6547.99,0.03747
6524.84,0.04774
6501.7,0.04174
6478.55,0.04014
6455.41,0.04626
6432.27,0.02958
6409.12,0.03214
6385.98,0.03659
6362.83,0.03463
6339.69,0.04198
6316.54,0.03810
6293.4,0.03200
6270.25,0.02904
6247.11,0.03037
6223.96,0.03742
6200.82,0.03187
6177.68,0.03079
6154.53,0.02353
6131.39,0.03284
6108.24,0.03375
6085.1,0.03251
6061.95,0.02834
6038.81,0.04041
6015.66,0.03299
5992.52,0.03201
5969.37,0.03618
5946.23,0.02644
5923.08,0.02936
5899.94,0.02858
5876.8,0.02873
5853.65,0.02687
5830.51,0.02578
5807.36,0.02555
5784.22,0.03024
5761.07,0.02530
5737.93,0.02800
5714.78,0.02618
5691.64,0.02628
5668.49,0.02703
5645.35,0.03084
5622.21,0.02297
5599.06,0.02350
5575.92,0.02727
5552.77,0.02736
5529.63,0.02729
5506.48,0.02437
5483.34,0.02441
5460.19,0.02756
5437.05,0.02968
5413.9,0.02736
5390.76,0.02607
5367.61,0.02451
5344.47,0.02473
5321.33,0.02609
5298.18,0.02705
5275.04,0.02698
5251.89,0.02512
5228.75,0.02453
5205.6,0.02339
5182.46,0.02494
5159.31,0.02583
5136.17,0.02454
5113.02,0.02289
5089.88,0.02290
5066.74,0.02456
5043.59,0.02670
5020.45,0.02416
4997.3,0.02323
4974.16,0.02664
4951.01,0.02353
4927.87,0.02497
4904.72,0.02215
4881.58,0.02673
4858.43,0.02414
4835.29,0.02523
4812.14,0.02493
4789,0.02449
4765.86,0.02650
4742.71,0.02298
4719.57,0.02459
4696.42,0.02361
4673.28,0.02376
4650.13,0.02375
4626.99,0.02321
4603.84,0.02339
4580.7,0.02344
4557.55,0.02399
4534.41,0.02376
4511.27,0.02478
4488.12,0.02353
4464.98,0.02236
4441.83,0.02435
4418.69,0.02497
4395.54,0.02382
4372.4,0.02359
4349.25,0.02340
4326.11,0.02348
4302.96,0.02263
4279.82,0.02426
4256.67,0.02451
4233.53,0.02441
4210.39,0.02342
4187.24,0.02324
4164.1,0.02381
4140.95,0.02344
4117.81,0.02465
4094.66,0.02414
4071.52,0.02340
4048.37,0.02366
4025.23,0.02331
4002.08,0.02387
3978.94,0.02423
3955.8,0.02367
3932.65,0.02279
3909.51,0.02366
3886.36,0.02417
3863.22,0.02321
3840.07,0.02493
3816.93,0.02421
3793.78,0.02462
3770.64,0.02411
3747.49,0.02418
3724.35,0.02347
3701.2,0.02416
3678.06,0.02347
3654.92,0.02426
3631.77,0.02311
3608.63,0.02238
3585.48,0.02241
3562.34,0.02307
3539.19,0.02180
3516.05,0.02170
3492.9,0.02140
3469.76,0.02199
3446.61,0.02151
3423.47,0.02199
3400.33,0.02148
3377.18,0.02127
3354.04,0.02134
3330.89,0.02131
3307.75,0.02156
3284.6,0.02100
3261.46,0.02157
3238.31,0.02154
3215.17,0.02202
3192.02,0.02132
3168.88,0.02154
3145.73,0.02269
3122.59,0.02233
3099.45,0.02183
3076.3,0.02153
3053.16,0.02231
3030.01,0.02188
3006.87,0.02173
2983.72,0.02144
2960.58,0.02114
2937.43,0.02127
2914.29,0.02168
2891.14,0.02261
2868,0.02196
2844.86,0.02259
2821.71,0.02245
2798.57,0.02320
2775.42,0.02265
2752.28,0.02248
2729.13,0.02202
2705.99,0.02245
2682.84,0.02289
2659.7,0.02218
2636.55,0.02265
2613.41,0.02313
2590.26,0.02267
2567.12,0.02211
2543.98,0.02306
2520.83,0.02282
2497.69,0.02259
2474.54,0.02328
2451.4,0.02278
2428.25,0.02287
2405.11,0.02300
2381.96,0.02326
2358.82,0.02397
2335.67,0.02352
2312.53,0.02281
2289.39,0.02344
2266.24,0.02287
2243.1,0.02298
2219.95,0.02292
2196.81,0.02249
2173.66,0.02287
2150.52,0.02273
2127.37,0.02274
2104.23,0.02257
2081.08,0.02300
2057.94,0.02302
2034.79,0.02276
2011.65,0.02317
1988.51,0.02298
1965.36,0.02299
1942.22,0.02274
1919.07,0.02267
1895.93,0.02266
1872.78,0.02260
1849.64,0.02244
1826.49,0.02222
1803.35,0.02208
1780.2,0.02109
1757.06,0.01977
1733.92,0.02116
1710.77,0.02212
1687.63,0.02105
1664.48,0.02054
1641.34,0.02046
1618.19,0.02123
1595.05,0.02075
1571.9,0.02026
1548.76,0.02045
1525.61,0.02059
1502.47,0.02100
1479.32,0.02072
1456.18,0.02081
1433.04,0.02041
1409.89,0.02021
1386.75,0.02013
1363.6,0.01988
1340.46,0.01956
1317.31,0.01878
1294.17,0.01955
1271.02,0.02102
1247.88,0.02198
1224.73,0.02123
1201.59,0.02054
1178.45,0.02006
1155.3,0.01952
1132.16,0.01951
1109.01,0.02015
1085.87,0.01964
1062.72,0.02134
1039.58,0.02131
1016.43,0.02184
993.288,0.02380
970.144,0.02251
946.999,0.02182
923.855,0.02160
900.71,0.02147
877.565,0.02093
854.421,0.02009
831.276,0.02040
808.132,0.02114
784.987,0.01987
761.843,0.01994
738.698,0.02018
715.553,0.02012
692.409,0.01908
669.264,0.01967
646.12,0.01965
622.975,0.01865
599.83,0.01628