File: 01_Data/PC/FTIR/IS/PC_2.93_S_IS_230516_R1.dpt
7496.92,0.08085
7473.77,0.06267
7450.63,0.09175
7427.48,0.06657
7404.34,0.11357
7381.19,0.08727
7358.05,0.05695
7334.9,0.06918
7311.76,0.08717
7288.62,0.06172
7265.47,0.08846
7242.33,0.09095
7219.18,0.05993
7196.04,0.07181
7172.89,0.08779
7149.75,0.08573
7126.6,0.08158
7103.46,0.07901
7080.31,0.11043
7057.17,0.09725
7034.02,0.08195
7010.88,0.09612
6987.74,0.08745
6964.59,0.08390
6941.45,0.09014
6918.3,0.08572
6895.16,0.09235
6872.01,0.08770
6848.87,0.09154
6825.72,0.08577
6802.58,0.09118
6779.43,0.10343
6756.29,0.09114
6733.15,0.11095
6710,0.09406
6686.86,0.10028
6663.71,0.08832
6640.57,0.11609
6617.42,0.10631
6594.28,0.11006
6571.13,0.10344
6547.99,0.10816
6524.84,0.10858
6501.7,0.10048
6478.55,0.11102
6455.41,0.10644
6432.27,0.11270
6409.12,0.11643
6385.98,0.11905
6362.83,0.10743
6339.69,0.10533
6316.54,0.10999
6293.4,0.10461
6270.25,0.11171
6247.11,0.10759
6223.96,0.09808
6200.82,0.09113
6177.68,0.08217
6154.53,0.07333
6131.39,0.07493
6108.24,0.06882
6085.1,0.05063
6061.95,0.04933
6038.81,0.04448
6015.66,0.03407
5992.52,0.03450
5969.37,0.04052
5946.23,0.04316
5923.08,0.04248
5899.94,0.04774
5876.8,0.05406
5853.65,0.05689
5830.51,0.06716
5807.36,0.06297
5784.22,0.06233
5761.07,0.05694
5737.93,0.06353
5714.78,0.07842
5691.64,0.08174
5668.49,0.07298
5645.35,0.07509
5622.21,0.09100
5599.06,0.09245
5575.92,0.09112
5552.77,0.08730
5529.63,0.09137
5506.48,0.09400
5483.34,0.09283
5460.19,0.09208
5437.05,0.09638
5413.9,0.09210
5390.76,0.09617
5367.61,0.09690
5344.47,0.09678
5321.33,0.09758
5298.18,0.09225
5275.04,0.07889
5251.89,0.07995
5228.75,0.09572
5205.6,0.10546
5182.46,0.10182
5159.31,0.10243
5136.17,0.10744
5113.02,0.10933
5089.88,0.10872
5066.74,0.10868
5043.59,0.10729
5020.45,0.10713
4997.3,0.10457
4974.16,0.10239
4951.01,0.10310
4927.87,0.09988
4904.72,0.09082
4881.58,0.08652
4858.43,0.08247
4835.29,0.07998
4812.14,0.08417
4789,0.08180
4765.86,0.07377
4742.71,0.06799
4719.57,0.05591
4696.42,0.05416
4673.28,0.05368
4650.13,0.05250
4626.99,0.05384
4603.84,0.05717
4580.7,0.05499
4557.55,0.05785
4534.41,0.06217
4511.27,0.06312
4488.12,0.05808
4464.98,0.05670
4441.83,0.05527
4418.69,0.05435
4395.54,0.05478
4372.4,0.05546
4349.25,0.05547
4326.11,0.05643
4302.96,0.05663
4279.82,0.05535
4256.67,0.05602
4233.53,0.05710
4210.39,0.05538
4187.24,0.05535
4164.1,0.05607
4140.95,0.05606
4117.81,0.05672
4094.66,0.05724
4071.52,0.05666
4048.37,0.05719
4025.23,0.05697
4002.08,0.05724
3978.94,0.05758
3955.8,0.05737
3932.65,0.05642
3909.51,0.05755
3886.36,0.05836
3863.22,0.05952
3840.07,0.05880
3816.93,0.05853
3793.78,0.05954
3770.64,0.06054
3747.49,0.05895
3724.35,0.05877
3701.2,0.05854
3678.06,0.05925
3654.92,0.05777
3631.77,0.05683
3608.63,0.05816
3585.48,0.05678
3562.34,0.05863
3539.19,0.05817
3516.05,0.05805
3492.9,0.05751
3469.76,0.05901
3446.61,0.05895
3423.47,0.05900
3400.33,0.05894
3377.18,0.05847
3354.04,0.05855
3330.89,0.05815
3307.75,0.05797
3284.6,0.05779
3261.46,0.05832
3238.31,0.05844
3215.17,0.05787
3192.02,0.05845
3168.88,0.05921
3145.73,0.05826
3122.59,0.05825
3099.45,0.05833
3076.3,0.05817
3053.16,0.05888
3030.01,0.05937
3006.87,0.05835
2983.72,0.05741
2960.58,0.06067
2937.43,0.06039
2914.29,0.05988
2891.14,0.06063
2868,0.06052
2844.86,0.06038
2821.71,0.06091
2798.57,0.06056
2775.42,0.06079
2752.28,0.06092
2729.13,0.06071
2705.99,0.06074
2682.84,0.06046
2659.7,0.06068
2636.55,0.06102
2613.41,0.06079
2590.26,0.06036
2567.12,0.06078
2543.98,0.06066
2520.83,0.06066
2497.69,0.06095
2474.54,0.06099
2451.4,0.06108
2428.25,0.06081
2405.11,0.06073
2381.96,0.06078
2358.82,0.06148
2335.67,0.06068
2312.53,0.06152
2289.39,0.06042
2266.24,0.06052
2243.1,0.06054
2219.95,0.06109
2196.81,0.06070
2173.66,0.06086
2150.52,0.06065
2127.37,0.06047
2104.23,0.06063
2081.08,0.06009
2057.94,0.05998
2034.79,0.05982
2011.65,0.05977
1988.51,0.06007
1965.36,0.05951
1942.22,0.05882
1919.07,0.05868
1895.93,0.05782
1872.78,0.05725
1849.64,0.05572
1826.49,0.05308
1803.35,0.04638
1780.2,0.06060
1757.06,0.07905
1733.92,0.06753
1710.77,0.06398
1687.63,0.06186
1664.48,0.06010
1641.34,0.05929
1618.19,0.05824
1595.05,0.05832
1571.9,0.05705
1548.76,0.05425
1525.61,0.04879
1502.47,0.07238
1479.32,0.06274
1456.18,0.05989
1433.04,0.05671
1409.89,0.05454
1386.75,0.05355
1363.6,0.05184
1340.46,0.04736
1317.31,0.04050
1294.17,0.03460
1271.02,0.02238
1247.88,0.09736
1224.73,0.14017
1201.59,0.09212
1178.45,0.11094
1155.3,0.13876
1132.16,0.09983
1109.01,0.08762
1085.87,0.07803
1062.72,0.08493
1039.58,0.07784
1016.43,0.07958
993.288,0.08693
970.144,0.08043
946.999,0.07789
923.855,0.07478
900.71,0.07131
877.565,0.07475
854.421,0.06608
831.276,0.07836
808.132,0.08512
784.987,0.07461
761.843,0.08080
738.698,0.07781
715.553,0.07512
692.409,0.07648
669.264,0.07503
646.12,0.07250
622.975,0.06977
599.83,0.06800