File: 01_Data/PC/FTIR/IS/PC_2.93_T_IS_230516_R3.dpt
7496.92,0.07358
7473.77,0.07765
7450.63,0.07743
7427.48,0.02000
7404.34,0.04092
7381.19,0.04961
7358.05,0.06348
7334.9,0.03916
7311.76,0.02657
7288.62,0.04841
7265.47,0.04092
7242.33,0.04953
7219.18,0.07981
7196.04,0.02336
7172.89,0.05621
7149.75,0.05240
7126.6,0.06384
7103.46,0.02216
7080.31,0.06831
7057.17,0.03064
7034.02,0.04808
7010.88,0.04024
6987.74,0.04488
6964.59,0.04374
6941.45,0.04980
6918.3,0.03969
6895.16,0.03658
6872.01,0.05293
6848.87,0.04895
6825.72,0.03401
6802.58,0.02966
6779.43,0.03321
6756.29,0.04541
6733.15,0.03573
6710,0.03284
6686.86,0.05742
6663.71,0.03387
6640.57,0.04667
6617.42,0.03464
6594.28,0.03626
6571.13,0.05016
6547.99,0.04198
6524.84,0.04506
6501.7,0.03523
6478.55,0.03556
6455.41,0.04260
6432.27,0.03140
6409.12,0.03621
6385.98,0.03310
6362.83,0.02957
6339.69,0.02826
6316.54,0.03099
6293.4,0.04109
6270.25,0.03897
6247.11,0.02278
6223.96,0.03314
6200.82,0.02596
6177.68,0.03435
6154.53,0.03703
6131.39,0.02688
6108.24,0.03413
6085.1,0.03079
6061.95,0.03376
6038.81,0.02512
6015.66,0.03179
5992.52,0.02859
5969.37,0.03124
5946.23,0.03388
5923.08,0.03516
5899.94,0.01981
5876.8,0.03148
5853.65,0.03017
5830.51,0.02870
5807.36,0.02733
5784.22,0.02915
5761.07,0.03008
5737.93,0.02926
5714.78,0.03072
5691.64,0.02901
5668.49,0.02900
5645.35,0.03074
5622.21,0.02819
5599.06,0.02400
5575.92,0.02599
5552.77,0.02521
5529.63,0.02449
5506.48,0.02948
5483.34,0.02715
5460.19,0.02066
5437.05,0.02593
5413.9,0.02692
5390.76,0.02715
5367.61,0.02490
5344.47,0.02572
5321.33,0.02419
5298.18,0.02636
5275.04,0.02374
5251.89,0.02423
5228.75,0.02350
5205.6,0.02627
5182.46,0.02792
5159.31,0.02519
5136.17,0.02584
5113.02,0.02402
5089.88,0.02291
5066.74,0.02397
5043.59,0.02569
5020.45,0.02382
4997.3,0.02451
4974.16,0.02436
4951.01,0.02407
4927.87,0.02320
4904.72,0.02522
4881.58,0.02395
4858.43,0.02406
4835.29,0.02499
4812.14,0.02403
4789,0.02271
4765.86,0.02306
4742.71,0.02458
4719.57,0.02202
4696.42,0.02532
4673.28,0.02611
4650.13,0.02354
4626.99,0.02266
4603.84,0.02303
4580.7,0.02299
4557.55,0.02266
4534.41,0.02506
4511.27,0.02276
4488.12,0.02428
4464.98,0.02293
4441.83,0.02321
4418.69,0.02274
4395.54,0.02314
4372.4,0.02298
4349.25,0.02200
4326.11,0.02310
4302.96,0.02251
4279.82,0.02318
4256.67,0.02300
4233.53,0.02306
4210.39,0.02405
4187.24,0.02288
4164.1,0.02282
4140.95,0.02357
4117.81,0.02308
4094.66,0.02248
4071.52,0.02281
4048.37,0.02263
4025.23,0.02249
4002.08,0.02288
3978.94,0.02248
3955.8,0.02242
3932.65,0.02414
3909.51,0.02396
3886.36,0.02359
3863.22,0.02315
3840.07,0.02220
3816.93,0.02302
3793.78,0.02299
3770.64,0.02276
3747.49,0.02449
3724.35,0.02294
3701.2,0.02368
3678.06,0.02428
3654.92,0.02188
3631.77,0.02215
3608.63,0.02305
3585.48,0.02212
3562.34,0.02184
3539.19,0.02151
3516.05,0.02212
3492.9,0.02234
3469.76,0.02115
3446.61,0.02159
3423.47,0.02107
3400.33,0.02118
3377.18,0.02158
3354.04,0.02066
3330.89,0.02102
3307.75,0.02098
3284.6,0.02090
3261.46,0.02164
3238.31,0.02149
3215.17,0.02109
3192.02,0.02172
3168.88,0.02180
3145.73,0.02201
3122.59,0.02253
3099.45,0.02244
3076.3,0.02210
3053.16,0.02206
3030.01,0.02182
3006.87,0.02183
2983.72,0.02120
2960.58,0.02121
2937.43,0.02108
2914.29,0.02165
2891.14,0.02154
2868,0.02117
2844.86,0.02106
2821.71,0.02167
2798.57,0.02206
2775.42,0.02226
2752.28,0.02278
2729.13,0.02217
2705.99,0.02216
2682.84,0.02239
2659.7,0.02266
2636.55,0.02220
2613.41,0.02251
2590.26,0.02237
2567.12,0.02221
2543.98,0.02245
2520.83,0.02264
2497.69,0.02227
2474.54,0.02253
2451.4,0.02282
2428.25,0.02260
2405.11,0.02240
2381.96,0.02297
2358.82,0.02427
2335.67,0.02405
2312.53,0.02334
2289.39,0.02263
2266.24,0.02284
2243.1,0.02240
2219.95,0.02243
2196.81,0.02276
2173.66,0.02251
2150.52,0.02281
2127.37,0.02283
2104.23,0.02257
2081.08,0.02237
2057.94,0.02250
2034.79,0.02250
2011.65,0.02259
1988.51,0.02278
1965.36,0.02232
1942.22,0.02231
1919.07,0.02244
1895.93,0.02225
1872.78,0.02203
1849.64,0.02212
1826.49,0.02195
1803.35,0.02177
1780.2,0.02119
1757.06,0.01937
1733.92,0.02129
1710.77,0.02210
1687.63,0.02096
1664.48,0.02006
1641.34,0.02058
1618.19,0.02087
1595.05,0.02071
1571.9,0.02048
1548.76,0.02023
1525.61,0.02011
1502.47,0.02064
1479.32,0.02052
1456.18,0.02052
1433.04,0.01990
1409.89,0.01946
1386.75,0.01979
1363.6,0.01979
1340.46,0.01945
1317.31,0.01849
1294.17,0.01885
1271.02,0.02071
1247.88,0.02161
1224.73,0.02113
1201.59,0.01997
1178.45,0.01963
1155.3,0.01911
1132.16,0.01972
1109.01,0.02006
1085.87,0.01927
1062.72,0.02156
1039.58,0.02164
1016.43,0.02141
993.288,0.02251
970.144,0.02187
946.999,0.02178
923.855,0.02097
900.71,0.02091
877.565,0.02089
854.421,0.02038
831.276,0.02036
808.132,0.02061
784.987,0.02039
761.843,0.01983
738.698,0.02017
715.553,0.01988
692.409,0.01879
669.264,0.01960
646.12,0.01557
622.975,0.01901
599.83,0.01725