File: 01_Data/PC/FTIR/IS/PC_2.93_T_IS_230516_R1.dpt
7496.92,0.07180
7473.77,0.06352
7450.63,0.05690
7427.48,0.05136
7404.34,0.05487
7381.19,0.06518
7358.05,0.06610
7334.9,0.03756
7311.76,0.04969
7288.62,0.04719
7265.47,0.03512
7242.33,0.03713
7219.18,0.03124
7196.04,0.02825
7172.89,0.03609
7149.75,0.06006
7126.6,0.01597
7103.46,0.06329
7080.31,0.03914
7057.17,0.01917
7034.02,0.04937
7010.88,0.04960
6987.74,0.05137
6964.59,0.05493
6941.45,0.03582
6918.3,0.04716
6895.16,0.04335
6872.01,0.04436
6848.87,0.03891
6825.72,0.05283
6802.58,0.04506
6779.43,0.02393
6756.29,0.04445
6733.15,0.03274
6710,0.02421
6686.86,0.04093
6663.71,0.04769
6640.57,0.03830
6617.42,0.04938
6594.28,0.03394
6571.13,0.04557
6547.99,0.04031
6524.84,0.04553
6501.7,0.03539
6478.55,0.03272
6455.41,0.03596
6432.27,0.02003
6409.12,0.03923
6385.98,0.03970
6362.83,0.02940
6339.69,0.03153
6316.54,0.03304
6293.4,0.03468
6270.25,0.03297
6247.11,0.03529
6223.96,0.02254
6200.82,0.03613
6177.68,0.02723
6154.53,0.03234
6131.39,0.03020
6108.24,0.02560
6085.1,0.03277
6061.95,0.02719
6038.81,0.03106
6015.66,0.02552
5992.52,0.03093
5969.37,0.03030
5946.23,0.02594
5923.08,0.02959
5899.94,0.02680
5876.8,0.03023
5853.65,0.02396
5830.51,0.02781
5807.36,0.02714
5784.22,0.02712
5761.07,0.02520
5737.93,0.03182
5714.78,0.02699
5691.64,0.02536
5668.49,0.02927
5645.35,0.02927
5622.21,0.02471
5599.06,0.02988
5575.92,0.02801
5552.77,0.02532
5529.63,0.02656
5506.48,0.02605
5483.34,0.02679
5460.19,0.02600
5437.05,0.02644
5413.9,0.02846
5390.76,0.02807
5367.61,0.02694
5344.47,0.02411
5321.33,0.02776
5298.18,0.02413
5275.04,0.02683
5251.89,0.02475
5228.75,0.02766
5205.6,0.02651
5182.46,0.02633
5159.31,0.02487
5136.17,0.02356
5113.02,0.02645
5089.88,0.02543
5066.74,0.02508
5043.59,0.02265
5020.45,0.02505
4997.3,0.02294
4974.16,0.02500
4951.01,0.02438
4927.87,0.02494
4904.72,0.02341
4881.58,0.02448
4858.43,0.02538
4835.29,0.02479
4812.14,0.02277
4789,0.02454
4765.86,0.02503
4742.71,0.02518
4719.57,0.02464
4696.42,0.02439
4673.28,0.02445
4650.13,0.02403
4626.99,0.02377
4603.84,0.02336
4580.7,0.02335
4557.55,0.02332
4534.41,0.02418
4511.27,0.02291
4488.12,0.02319
4464.98,0.02361
4441.83,0.02506
4418.69,0.02317
4395.54,0.02288
4372.4,0.02300
4349.25,0.02308
4326.11,0.02379
4302.96,0.02383
4279.82,0.02344
4256.67,0.02288
4233.53,0.02383
4210.39,0.02385
4187.24,0.02246
4164.1,0.02329
4140.95,0.02370
4117.81,0.02251
4094.66,0.02448
4071.52,0.02373
4048.37,0.02379
4025.23,0.02374
4002.08,0.02388
3978.94,0.02369
3955.8,0.02421
3932.65,0.02301
3909.51,0.02383
3886.36,0.02349
3863.22,0.02302
3840.07,0.02442
3816.93,0.02397
3793.78,0.02393
3770.64,0.02374
3747.49,0.02231
3724.35,0.02336
3701.2,0.02422
3678.06,0.02478
3654.92,0.02286
3631.77,0.02299
3608.63,0.02366
3585.48,0.02178
3562.34,0.02196
3539.19,0.02225
3516.05,0.02245
3492.9,0.02226
3469.76,0.02117
3446.61,0.02071
3423.47,0.02160
3400.33,0.02115
3377.18,0.02142
3354.04,0.02181
3330.89,0.02217
3307.75,0.02133
3284.6,0.02201
3261.46,0.02102
3238.31,0.02135
3215.17,0.02204
3192.02,0.02218
3168.88,0.02212
3145.73,0.02202
3122.59,0.02205
3099.45,0.02163
3076.3,0.02204
3053.16,0.02148
3030.01,0.02206
3006.87,0.02229
2983.72,0.02133
2960.58,0.02117
2937.43,0.02073
2914.29,0.02180
2891.14,0.02133
2868,0.02150
2844.86,0.02201
2821.71,0.02268
2798.57,0.02220
2775.42,0.02243
2752.28,0.02260
2729.13,0.02265
2705.99,0.02291
2682.84,0.02255
2659.7,0.02299
2636.55,0.02280
2613.41,0.02272
2590.26,0.02309
2567.12,0.02293
2543.98,0.02304
2520.83,0.02310
2497.69,0.02293
2474.54,0.02279
2451.4,0.02285
2428.25,0.02289
2405.11,0.02298
2381.96,0.02313
2358.82,0.02347
2335.67,0.02340
2312.53,0.02301
2289.39,0.02291
2266.24,0.02320
2243.1,0.02302
2219.95,0.02251
2196.81,0.02284
2173.66,0.02265
2150.52,0.02278
2127.37,0.02283
2104.23,0.02280
2081.08,0.02290
2057.94,0.02298
2034.79,0.02285
2011.65,0.02265
1988.51,0.02306
1965.36,0.02275
1942.22,0.02221
1919.07,0.02258
1895.93,0.02281
1872.78,0.02232
1849.64,0.02224
1826.49,0.02246
1803.35,0.02200
1780.2,0.02138
1757.06,0.01997
1733.92,0.02108
1710.77,0.02269
1687.63,0.02132
1664.48,0.02087
1641.34,0.02076
1618.19,0.02085
1595.05,0.02108
1571.9,0.02001
1548.76,0.02044
1525.61,0.02111
1502.47,0.02074
1479.32,0.02043
1456.18,0.02085
1433.04,0.02030
1409.89,0.02027
1386.75,0.01985
1363.6,0.02018
1340.46,0.01949
1317.31,0.01897
1294.17,0.01951
1271.02,0.02092
1247.88,0.02162
1224.73,0.02084
1201.59,0.02080
1178.45,0.01979
1155.3,0.01900
1132.16,0.01962
1109.01,0.02046
1085.87,0.02070
1062.72,0.02144
1039.58,0.02118
1016.43,0.02174
993.288,0.02282
970.144,0.02235
946.999,0.02179
923.855,0.02153
900.71,0.02115
877.565,0.02106
854.421,0.02047
831.276,0.02013
808.132,0.02073
784.987,0.02025
761.843,0.01958
738.698,0.01925
715.553,0.01962
692.409,0.01902
669.264,0.01895
646.12,0.01949
622.975,0.01954
599.83,0.01854