File: 01_Data/PC/FTIR/IS/PC_2.93_S_IS_230516_R2.dpt
7496.92,0.10148
7473.77,0.09913
7450.63,0.08829
7427.48,0.07549
7404.34,0.10703
7381.19,0.06781
7358.05,0.09874
7334.9,0.08953
7311.76,0.10488
7288.62,0.08075
7265.47,0.08659
7242.33,0.07006
7219.18,0.08665
7196.04,0.06779
7172.89,0.07962
7149.75,0.10005
7126.6,0.07607
7103.46,0.08171
7080.31,0.07688
7057.17,0.08610
7034.02,0.08410
7010.88,0.08398
6987.74,0.08090
6964.59,0.10990
6941.45,0.09679
6918.3,0.10947
6895.16,0.09378
6872.01,0.10191
6848.87,0.09250
6825.72,0.10289
6802.58,0.09574
6779.43,0.10413
6756.29,0.11128
6733.15,0.08878
6710,0.09884
6686.86,0.10912
6663.71,0.10474
6640.57,0.10088
6617.42,0.10158
6594.28,0.10740
6571.13,0.10208
6547.99,0.10643
6524.84,0.11563
6501.7,0.11481
6478.55,0.11232
6455.41,0.10679
6432.27,0.12309
6409.12,0.10865
6385.98,0.11574
6362.83,0.11916
6339.69,0.10723
6316.54,0.10660
6293.4,0.10357
6270.25,0.09996
6247.11,0.10906
6223.96,0.10065
6200.82,0.09192
6177.68,0.08671
6154.53,0.08158
6131.39,0.07240
6108.24,0.07466
6085.1,0.05282
6061.95,0.04625
6038.81,0.04048
6015.66,0.04345
5992.52,0.04170
5969.37,0.03416
5946.23,0.04224
5923.08,0.04245
5899.94,0.04540
5876.8,0.05002
5853.65,0.05562
5830.51,0.05981
5807.36,0.06404
5784.22,0.06180
5761.07,0.05643
5737.93,0.06427
5714.78,0.07889
5691.64,0.08366
5668.49,0.07382
5645.35,0.07642
5622.21,0.08896
5599.06,0.09146
5575.92,0.08916
5552.77,0.09137
5529.63,0.09543
5506.48,0.09331
5483.34,0.09049
5460.19,0.09294
5437.05,0.09517
5413.9,0.09667
5390.76,0.10040
5367.61,0.10173
5344.47,0.09687
5321.33,0.09842
5298.18,0.09578
5275.04,0.08089
5251.89,0.08127
5228.75,0.09872
5205.6,0.10090
5182.46,0.10059
5159.31,0.10216
5136.17,0.10632
5113.02,0.10866
5089.88,0.10808
5066.74,0.10685
5043.59,0.10985
5020.45,0.10822
4997.3,0.10535
4974.16,0.10306
4951.01,0.10164
4927.87,0.10303
4904.72,0.09126
4881.58,0.08777
4858.43,0.08285
4835.29,0.08079
4812.14,0.08379
4789,0.08458
4765.86,0.07564
4742.71,0.06674
4719.57,0.05695
4696.42,0.05216
4673.28,0.05347
4650.13,0.05380
4626.99,0.05303
4603.84,0.05688
4580.7,0.05450
4557.55,0.05993
4534.41,0.06226
4511.27,0.06296
4488.12,0.05759
4464.98,0.05817
4441.83,0.05606
4418.69,0.05532
4395.54,0.05422
4372.4,0.05447
4349.25,0.05561
4326.11,0.05509
4302.96,0.05577
4279.82,0.05655
4256.67,0.05575
4233.53,0.05497
4210.39,0.05587
4187.24,0.05555
4164.1,0.05532
4140.95,0.05592
4117.81,0.05513
4094.66,0.05700
4071.52,0.05715
4048.37,0.05655
4025.23,0.05713
4002.08,0.05772
3978.94,0.05691
3955.8,0.05707
3932.65,0.05800
3909.51,0.05818
3886.36,0.05751
3863.22,0.05803
3840.07,0.05886
3816.93,0.05929
3793.78,0.05978
3770.64,0.05972
3747.49,0.05947
3724.35,0.05876
3701.2,0.05882
3678.06,0.05685
3654.92,0.05868
3631.77,0.05808
3608.63,0.05944
3585.48,0.05758
3562.34,0.05770
3539.19,0.05743
3516.05,0.05709
3492.9,0.05800
3469.76,0.05831
3446.61,0.05806
3423.47,0.05928
3400.33,0.05898
3377.18,0.05859
3354.04,0.05806
3330.89,0.05748
3307.75,0.05804
3284.6,0.05773
3261.46,0.05802
3238.31,0.05773
3215.17,0.05839
3192.02,0.05871
3168.88,0.05844
3145.73,0.05881
3122.59,0.05890
3099.45,0.05870
3076.3,0.05838
3053.16,0.05891
3030.01,0.05930
3006.87,0.05784
2983.72,0.05709
2960.58,0.06104
2937.43,0.05975
2914.29,0.05958
2891.14,0.06038
2868,0.06097
2844.86,0.06056
2821.71,0.06042
2798.57,0.06090
2775.42,0.06037
2752.28,0.06030
2729.13,0.06047
2705.99,0.06078
2682.84,0.06070
2659.7,0.06045
2636.55,0.06085
2613.41,0.06078
2590.26,0.06103
2567.12,0.06075
2543.98,0.06080
2520.83,0.06061
2497.69,0.06042
2474.54,0.06063
2451.4,0.06079
2428.25,0.06069
2405.11,0.06058
2381.96,0.06110
2358.82,0.06138
2335.67,0.06067
2312.53,0.06125
2289.39,0.06109
2266.24,0.06028
2243.1,0.06038
2219.95,0.06049
2196.81,0.06045
2173.66,0.06061
2150.52,0.06075
2127.37,0.06039
2104.23,0.05997
2081.08,0.06016
2057.94,0.05975
2034.79,0.06003
2011.65,0.05935
1988.51,0.05953
1965.36,0.05922
1942.22,0.05879
1919.07,0.05824
1895.93,0.05792
1872.78,0.05715
1849.64,0.05593
1826.49,0.05318
1803.35,0.04653
1780.2,0.06033
1757.06,0.07874
1733.92,0.06702
1710.77,0.06350
1687.63,0.06183
1664.48,0.06012
1641.34,0.05931
1618.19,0.05815
1595.05,0.05846
1571.9,0.05670
1548.76,0.05393
1525.61,0.04938
1502.47,0.07221
1479.32,0.06284
1456.18,0.05972
1433.04,0.05662
1409.89,0.05436
1386.75,0.05312
1363.6,0.05241
1340.46,0.04717
1317.31,0.04029
1294.17,0.03451
1271.02,0.02224
1247.88,0.09681
1224.73,0.13942
1201.59,0.09180
1178.45,0.11092
1155.3,0.13884
1132.16,0.09930
1109.01,0.08804
1085.87,0.07736
1062.72,0.08515
1039.58,0.07624
1016.43,0.07967
993.288,0.08676
970.144,0.08030
946.999,0.07739
923.855,0.07446
900.71,0.07174
877.565,0.07555
854.421,0.06649
831.276,0.07824
808.132,0.08466
784.987,0.07540
761.843,0.08046
738.698,0.07774
715.553,0.07597
692.409,0.07678
669.264,0.07456
646.12,0.07404
622.975,0.07109
599.83,0.06626