File: 01_Data/PC/FTIR/IS/PC_2.93_Trans_T_IS_230516_R4.dpt
7496.92,0.09093
7473.77,0.07478
7450.63,0.07363
7427.48,0.03243
7404.34,0.09111
7381.19,0.08019
7358.05,0.06249
7334.9,0.04961
7311.76,0.11028
7288.62,0.05440
7265.47,0.11293
7242.33,0.06696
7219.18,0.05123
7196.04,0.07268
7172.89,0.00682
7149.75,0.05799
7126.6,0.03968
7103.46,0.01643
7080.31,0.04463
7057.17,0.03341
7034.02,0.07751
7010.88,0.03633
6987.74,0.03184
6964.59,0.02664
6941.45,0.05292
6918.3,0.02005
6895.16,0.04131
6872.01,0.03812
6848.87,0.05809
6825.72,0.04029
6802.58,0.04467
6779.43,0.03859
6756.29,0.00499
6733.15,0.03818
6710,0.02235
6686.86,0.02396
6663.71,0.01660
6640.57,0.02364
6617.42,0.02359
6594.28,0.02657
6571.13,0.02086
6547.99,0.01986
6524.84,0.02590
6501.7,0.03692
6478.55,0.01669
6455.41,0.03848
6432.27,0.00117
6409.12,0.01357
6385.98,0.01699
6362.83,0.01557
6339.69,0.01518
6316.54,0.02596
6293.4,0.02111
6270.25,0.01552
6247.11,0.01290
6223.96,0.02577
6200.82,0.00647
6177.68,0.01811
6154.53,0.01146
6131.39,0.01356
6108.24,0.00877
6085.1,0.02207
6061.95,0.00710
6038.81,0.00598
6015.66,0.01001
5992.52,0.01685
5969.37,0.00674
5946.23,0.00958
5923.08,0.00954
5899.94,0.00553
5876.8,0.02140
5853.65,0.00931
5830.51,0.00648
5807.36,0.01732
5784.22,0.01621
5761.07,-0.00283
5737.93,0.01128
5714.78,0.01891
5691.64,0.00184
5668.49,0.00667
5645.35,0.00904
5622.21,0.00534
5599.06,0.00303
5575.92,0.00835
5552.77,0.01078
5529.63,0.00711
5506.48,0.01245
5483.34,0.00573
5460.19,0.00489
5437.05,0.00634
5413.9,0.00378
5390.76,0.00865
5367.61,0.00281
5344.47,0.00904
5321.33,0.01313
5298.18,0.00957
5275.04,0.00545
5251.89,0.00873
5228.75,0.00977
5205.6,0.00456
5182.46,0.00492
5159.31,0.00786
5136.17,0.00659
5113.02,0.00435
5089.88,0.00704
5066.74,0.00870
5043.59,0.00436
5020.45,0.00224
4997.3,0.00749
4974.16,0.00842
4951.01,0.00882
4927.87,0.00298
4904.72,0.00566
4881.58,0.00274
4858.43,0.00491
4835.29,0.00301
4812.14,0.00301
4789,0.00613
4765.86,0.00227
4742.71,0.00332
4719.57,0.00578
4696.42,0.00110
4673.28,-0.00008
4650.13,0.00164
4626.99,0.00582
4603.84,0.00393
4580.7,0.00297
4557.55,0.00309
4534.41,0.00355
4511.27,0.00377
4488.12,0.00179
4464.98,0.00264
4441.83,0.00383
4418.69,-0.00042
4395.54,0.00304
4372.4,0.00354
4349.25,0.00401
4326.11,0.00199
4302.96,0.00247
4279.82,0.00329
4256.67,0.00229
4233.53,0.00161
4210.39,0.00242
4187.24,0.00149
4164.1,0.00465
4140.95,0.00160
4117.81,0.00255
4094.66,0.00193
4071.52,0.00338
4048.37,0.00139
4025.23,0.00345
4002.08,0.00332
3978.94,0.00102
3955.8,0.00275
3932.65,0.00172
3909.51,0.00205
3886.36,0.00316
3863.22,0.00388
3840.07,0.00107
3816.93,0.00232
3793.78,0.00219
3770.64,0.00202
3747.49,0.00381
3724.35,0.00228
3701.2,0.00229
3678.06,0.00020
3654.92,0.00082
3631.77,0.00349
3608.63,0.00301
3585.48,0.00474
3562.34,0.00338
3539.19,0.00238
3516.05,0.00124
3492.9,0.00125
3469.76,0.00236
3446.61,0.00354
3423.47,0.00208
3400.33,0.00180
3377.18,0.00017
3354.04,0.00331
3330.89,-0.00008
3307.75,0.00288
3284.6,0.00186
3261.46,0.00203
3238.31,0.00117
3215.17,0.00138
3192.02,0.00035
3168.88,0.00217
3145.73,0.00245
3122.59,0.00253
3099.45,0.00213
3076.3,0.00104
3053.16,0.00191
3030.01,0.00162
3006.87,0.00208
2983.72,0.00171
2960.58,0.00128
2937.43,0.00117
2914.29,0.00053
2891.14,0.00130
2868,0.00032
2844.86,0.00084
2821.71,0.00105
2798.57,0.00064
2775.42,0.00144
2752.28,0.00133
2729.13,0.00096
2705.99,0.00120
2682.84,0.00169
2659.7,0.00146
2636.55,0.00189
2613.41,0.00091
2590.26,0.00077
2567.12,0.00010
2543.98,0.00058
2520.83,0.00245
2497.69,0.00084
2474.54,0.00185
2451.4,0.00100
2428.25,0.00063
2405.11,0.00047
2381.96,0.00091
2358.82,0.00366
2335.67,0.00032
2312.53,0.00079
2289.39,0.00112
2266.24,0.00068
2243.1,0.00035
2219.95,0.00104
2196.81,0.00082
2173.66,0.00093
2150.52,0.00072
2127.37,0.00110
2104.23,0.00065
2081.08,0.00070
2057.94,0.00082
2034.79,0.00105
2011.65,0.00097
1988.51,0.00057
1965.36,0.00076
1942.22,0.00050
1919.07,0.00096
1895.93,0.00048
1872.78,0.00073
1849.64,0.00154
1826.49,0.00098
1803.35,0.00086
1780.2,0.00138
1757.06,0.00069
1733.92,0.00162
1710.77,0.00173
1687.63,0.00166
1664.48,0.00114
1641.34,0.00122
1618.19,0.00092
1595.05,0.00054
1571.9,0.00035
1548.76,0.00175
1525.61,0.00166
1502.47,0.00139
1479.32,0.00064
1456.18,0.00325
1433.04,0.00069
1409.89,0.00046
1386.75,0.00068
1363.6,0.00111
1340.46,0.00071
1317.31,0.00083
1294.17,0.00047
1271.02,0.00126
1247.88,0.00134
1224.73,0.00072
1201.59,0.00073
1178.45,0.00106
1155.3,0.00063
1132.16,0.00086
1109.01,0.00112
1085.87,0.00091
1062.72,0.00159
1039.58,0.00093
1016.43,0.00139
993.288,0.00146
970.144,0.00117
946.999,0.00122
923.855,0.00079
900.71,0.00197
877.565,0.00136
854.421,0.00141
831.276,0.00274
808.132,0.00308
784.987,0.00213
761.843,0.00380
738.698,0.00039
715.553,0.00222
692.409,0.00140
669.264,0.00644
646.12,0.00420
622.975,0.00649
599.83,0.00563