File: 01_Data/PC/FTIR/IS/PC_2.93_Trans_S_IS_230516_R1.dpt
7496.92,0.88323
7473.77,0.85342
7450.63,0.88038
7427.48,0.85493
7404.34,0.81987
7381.19,0.83965
7358.05,0.81601
7334.9,0.77020
7311.76,0.77803
7288.62,0.78643
7265.47,0.76798
7242.33,0.76271
7219.18,0.72813
7196.04,0.76179
7172.89,0.74838
7149.75,0.75774
7126.6,0.76263
7103.46,0.77207
7080.31,0.80636
7057.17,0.79903
7034.02,0.82304
7010.88,0.81393
6987.74,0.79667
6964.59,0.81841
6941.45,0.81676
6918.3,0.81820
6895.16,0.82826
6872.01,0.82548
6848.87,0.82645
6825.72,0.84012
6802.58,0.83468
6779.43,0.84846
6756.29,0.85725
6733.15,0.85791
6710,0.85176
6686.86,0.85704
6663.71,0.85713
6640.57,0.86101
6617.42,0.86163
6594.28,0.86136
6571.13,0.88053
6547.99,0.87558
6524.84,0.87686
6501.7,0.87858
6478.55,0.87964
6455.41,0.86886
6432.27,0.87146
6409.12,0.86683
6385.98,0.87546
6362.83,0.85704
6339.69,0.86933
6316.54,0.86302
6293.4,0.85154
6270.25,0.84165
6247.11,0.82809
6223.96,0.79583
6200.82,0.76120
6177.68,0.70482
6154.53,0.67447
6131.39,0.60713
6108.24,0.55212
6085.1,0.41103
6061.95,0.31318
6038.81,0.21110
6015.66,0.08599
5992.52,0.04519
5969.37,0.15361
5946.23,0.17878
5923.08,0.15738
5899.94,0.20334
5876.8,0.27452
5853.65,0.41724
5830.51,0.45089
5807.36,0.46310
5784.22,0.43139
5761.07,0.39385
5737.93,0.49970
5714.78,0.59872
5691.64,0.62050
5668.49,0.55159
5645.35,0.58408
5622.21,0.66509
5599.06,0.68812
5575.92,0.68029
5552.77,0.67260
5529.63,0.67173
5506.48,0.67003
5483.34,0.65802
5460.19,0.65179
5437.05,0.67477
5413.9,0.66682
5390.76,0.67800
5367.61,0.68922
5344.47,0.66665
5321.33,0.67348
5298.18,0.64966
5275.04,0.54548
5251.89,0.54793
5228.75,0.66362
5205.6,0.69500
5182.46,0.69624
5159.31,0.69915
5136.17,0.71911
5113.02,0.72554
5089.88,0.71935
5066.74,0.71473
5043.59,0.72231
5020.45,0.70930
4997.3,0.69689
4974.16,0.68042
4951.01,0.67607
4927.87,0.66074
4904.72,0.59830
4881.58,0.56895
4858.43,0.52665
4835.29,0.50844
4812.14,0.53628
4789,0.52092
4765.86,0.45924
4742.71,0.36140
4719.57,0.18255
4696.42,0.03385
4673.28,0.02310
4650.13,0.04179
4626.99,0.02345
4603.84,0.18137
4580.7,0.12217
4557.55,0.22041
4534.41,0.27836
4511.27,0.28131
4488.12,0.19121
4464.98,0.16274
4441.83,0.08467
4418.69,0.01679
4395.54,0.01354
4372.4,0.00960
4349.25,0.00363
4326.11,0.00179
4302.96,0.00336
4279.82,0.00710
4256.67,0.01475
4233.53,0.01366
4210.39,0.00963
4187.24,0.00722
4164.1,0.00756
4140.95,0.02316
4117.81,0.01711
4094.66,0.00015
4071.52,0.00080
4048.37,0.00472
4025.23,0.02288
4002.08,0.02261
3978.94,0.02168
3955.8,0.03424
3932.65,0.02780
3909.51,0.02038
3886.36,0.01283
3863.22,0.04111
3840.07,0.07918
3816.93,0.08091
3793.78,0.10722
3770.64,0.11846
3747.49,0.05650
3724.35,0.07311
3701.2,0.01761
3678.06,0.00037
3654.92,0.00291
3631.77,0.02746
3608.63,0.05741
3585.48,0.00365
3562.34,0.00162
3539.19,0.00038
3516.05,0.00016
3492.9,0.01336
3469.76,0.02981
3446.61,0.06349
3423.47,0.09842
3400.33,0.09616
3377.18,0.06075
3354.04,0.06029
3330.89,0.05348
3307.75,0.02314
3284.6,0.01127
3261.46,0.00649
3238.31,0.00408
3215.17,0.00249
3192.02,0.00021
3168.88,0.00067
3145.73,-0.00018
3122.59,0.00059
3099.45,0.00052
3076.3,0.00034
3053.16,0.00043
3030.01,0.00024
3006.87,0.00025
2983.72,0.00045
2960.58,0.00082
2937.43,0.00064
2914.29,0.00042
2891.14,0.00032
2868,0.00079
2844.86,0.00072
2821.71,0.00075
2798.57,0.00077
2775.42,0.00047
2752.28,0.00638
2729.13,0.00326
2705.99,0.00713
2682.84,0.02288
2659.7,0.02195
2636.55,0.04042
2613.41,0.00372
2590.26,0.00312
2567.12,0.01138
2543.98,0.00890
2520.83,0.00515
2497.69,0.00104
2474.54,0.00012
2451.4,0.00039
2428.25,0.00023
2405.11,0.00012
2381.96,0.00026
2358.82,0.00145
2335.67,0.00061
2312.53,0.00017
2289.39,0.00074
2266.24,0.00026
2243.1,0.00034
2219.95,0.00026
2196.81,0.00049
2173.66,0.00022
2150.52,0.00408
2127.37,0.00086
2104.23,0.00038
2081.08,0.00018
2057.94,0.00013
2034.79,0.00036
2011.65,0.00022
1988.51,0.00034
1965.36,0.00007
1942.22,0.00035
1919.07,0.00048
1895.93,0.00043
1872.78,0.00031
1849.64,0.00019
1826.49,0.00030
1803.35,0.00024
1780.2,0.00045
1757.06,0.00042
1733.92,0.00022
1710.77,0.00040
1687.63,0.00027
1664.48,0.00013
1641.34,0.00030
1618.19,0.00048
1595.05,0.00025
1571.9,0.00040
1548.76,0.00010
1525.61,-0.00001
1502.47,0.00047
1479.32,0.00014
1456.18,0.00075
1433.04,0.00040
1409.89,0.00043
1386.75,0.00029
1363.6,0.00026
1340.46,0.00026
1317.31,0.00045
1294.17,0.00035
1271.02,0.00033
1247.88,0.00009
1224.73,0.00018
1201.59,0.00076
1178.45,0.00055
1155.3,0.00015
1132.16,0.00018
1109.01,0.00032
1085.87,0.00078
1062.72,0.00076
1039.58,0.00044
1016.43,0.00044
993.288,0.00044
970.144,0.00040
946.999,0.00054
923.855,0.00037
900.71,0.00032
877.565,0.00049
854.421,0.00032
831.276,0.00078
808.132,0.00065
784.987,0.00031
761.843,0.00097
738.698,0.00052
715.553,0.00065
692.409,0.00047
669.264,0.00085
646.12,0.00066
622.975,0.00017
599.83,0.00286