File: 01_Data/PC/FTIR/IS/PC_2.93_Trans_S_IS_230516_R2.dpt
7496.92,0.87888
7473.77,0.86358
7450.63,0.86679
7427.48,0.84878
7404.34,0.83299
7381.19,0.82870
7358.05,0.85288
7334.9,0.76403
7311.76,0.75900
7288.62,0.76144
7265.47,0.75873
7242.33,0.75626
7219.18,0.74474
7196.04,0.75812
7172.89,0.75224
7149.75,0.77733
7126.6,0.74994
7103.46,0.77697
7080.31,0.79039
7057.17,0.81188
7034.02,0.81738
7010.88,0.82035
6987.74,0.80949
6964.59,0.80878
6941.45,0.82454
6918.3,0.82879
6895.16,0.83488
6872.01,0.82798
6848.87,0.82493
6825.72,0.84622
6802.58,0.83978
6779.43,0.84453
6756.29,0.85999
6733.15,0.84894
6710,0.85085
6686.86,0.86651
6663.71,0.86391
6640.57,0.86876
6617.42,0.87421
6594.28,0.86286
6571.13,0.87972
6547.99,0.86351
6524.84,0.87934
6501.7,0.87330
6478.55,0.87783
6455.41,0.87141
6432.27,0.87502
6409.12,0.88027
6385.98,0.87646
6362.83,0.86230
6339.69,0.87295
6316.54,0.85898
6293.4,0.85049
6270.25,0.84633
6247.11,0.84244
6223.96,0.80103
6200.82,0.77240
6177.68,0.71371
6154.53,0.67442
6131.39,0.61813
6108.24,0.55155
6085.1,0.41137
6061.95,0.31560
6038.81,0.21248
6015.66,0.08694
5992.52,0.04396
5969.37,0.15048
5946.23,0.18634
5923.08,0.16283
5899.94,0.21089
5876.8,0.28229
5853.65,0.42085
5830.51,0.45489
5807.36,0.46697
5784.22,0.43466
5761.07,0.39294
5737.93,0.49740
5714.78,0.60242
5691.64,0.62307
5668.49,0.55587
5645.35,0.58726
5622.21,0.66960
5599.06,0.69200
5575.92,0.68484
5552.77,0.67503
5529.63,0.67764
5506.48,0.67150
5483.34,0.65920
5460.19,0.65254
5437.05,0.67695
5413.9,0.67069
5390.76,0.68316
5367.61,0.69068
5344.47,0.66610
5321.33,0.67525
5298.18,0.65002
5275.04,0.54835
5251.89,0.55461
5228.75,0.66610
5205.6,0.69823
5182.46,0.69506
5159.31,0.70205
5136.17,0.72237
5113.02,0.72873
5089.88,0.72193
5066.74,0.71904
5043.59,0.72374
5020.45,0.71185
4997.3,0.69976
4974.16,0.68202
4951.01,0.67761
4927.87,0.66292
4904.72,0.60165
4881.58,0.57060
4858.43,0.53048
4835.29,0.51104
4812.14,0.53744
4789,0.52337
4765.86,0.46012
4742.71,0.36299
4719.57,0.18312
4696.42,0.03415
4673.28,0.02219
4650.13,0.04490
4626.99,0.02451
4603.84,0.18088
4580.7,0.12401
4557.55,0.22147
4534.41,0.27964
4511.27,0.28195
4488.12,0.19212
4464.98,0.16299
4441.83,0.08591
4418.69,0.01808
4395.54,0.01349
4372.4,0.01018
4349.25,0.00457
4326.11,0.00183
4302.96,0.00386
4279.82,0.00741
4256.67,0.01465
4233.53,0.01558
4210.39,0.01027
4187.24,0.00765
4164.1,0.00723
4140.95,0.02287
4117.81,0.01669
4094.66,0.00086
4071.52,0.00063
4048.37,0.00527
4025.23,0.02355
4002.08,0.02309
3978.94,0.02086
3955.8,0.03426
3932.65,0.02895
3909.51,0.01916
3886.36,0.01219
3863.22,0.04091
3840.07,0.07947
3816.93,0.07962
3793.78,0.10799
3770.64,0.11971
3747.49,0.05629
3724.35,0.07239
3701.2,0.01698
3678.06,0.00116
3654.92,0.00193
3631.77,0.02903
3608.63,0.05714
3585.48,0.00264
3562.34,0.00102
3539.19,0.00066
3516.05,0.00078
3492.9,0.01355
3469.76,0.03002
3446.61,0.06391
3423.47,0.10032
3400.33,0.09708
3377.18,0.06088
3354.04,0.06021
3330.89,0.05269
3307.75,0.02395
3284.6,0.01136
3261.46,0.00688
3238.31,0.00306
3215.17,0.00123
3192.02,0.00067
3168.88,0.00026
3145.73,0.00008
3122.59,0.00039
3099.45,0.00085
3076.3,0.00036
3053.16,0.00053
3030.01,0.00020
3006.87,0.00040
2983.72,0.00047
2960.58,0.00036
2937.43,0.00033
2914.29,0.00051
2891.14,0.00033
2868,0.00039
2844.86,0.00007
2821.71,0.00057
2798.57,0.00089
2775.42,0.00035
2752.28,0.00550
2729.13,0.00349
2705.99,0.00722
2682.84,0.02279
2659.7,0.02155
2636.55,0.04056
2613.41,0.00381
2590.26,0.00299
2567.12,0.01092
2543.98,0.00890
2520.83,0.00550
2497.69,0.00102
2474.54,0.00005
2451.4,0.00038
2428.25,0.00030
2405.11,0.00021
2381.96,0.00035
2358.82,0.00088
2335.67,0.00084
2312.53,0.00062
2289.39,0.00031
2266.24,0.00033
2243.1,0.00012
2219.95,0.00004
2196.81,0.00026
2173.66,0.00023
2150.52,0.00357
2127.37,0.00100
2104.23,0.00029
2081.08,0.00016
2057.94,0.00053
2034.79,0.00041
2011.65,0.00027
1988.51,0.00027
1965.36,0.00044
1942.22,0.00024
1919.07,0.00018
1895.93,0.00043
1872.78,0.00029
1849.64,0.00034
1826.49,0.00022
1803.35,0.00042
1780.2,0.00034
1757.06,0.00029
1733.92,0.00038
1710.77,0.00024
1687.63,0.00041
1664.48,0.00045
1641.34,0.00038
1618.19,0.00022
1595.05,0.00040
1571.9,0.00053
1548.76,0.00030
1525.61,0.00086
1502.47,0.00039
1479.32,0.00011
1456.18,0.00048
1433.04,0.00023
1409.89,0.00023
1386.75,0.00019
1363.6,0.00025
1340.46,0.00036
1317.31,0.00036
1294.17,0.00026
1271.02,0.00036
1247.88,0.00054
1224.73,0.00017
1201.59,0.00030
1178.45,0.00012
1155.3,0.00052
1132.16,0.00018
1109.01,0.00078
1085.87,0.00063
1062.72,0.00025
1039.58,0.00053
1016.43,0.00044
993.288,0.00064
970.144,0.00022
946.999,0.00061
923.855,0.00044
900.71,0.00020
877.565,0.00031
854.421,0.00039
831.276,0.00086
808.132,-0.00006
784.987,0.00061
761.843,0.00063
738.698,0.00010
715.553,0.00097
692.409,0.00085
669.264,0.00202
646.12,0.00137
622.975,0.00223
599.83,0.00413