File: 01_Data/PC/FTIR/IS/PC_2.93_Trans_S_IS_230516_R3.dpt
7496.92,0.89988
7473.77,0.88594
7450.63,0.84422
7427.48,0.87051
7404.34,0.82673
7381.19,0.79835
7358.05,0.77822
7334.9,0.78235
7311.76,0.76958
7288.62,0.76166
7265.47,0.77394
7242.33,0.74705
7219.18,0.78511
7196.04,0.74743
7172.89,0.75143
7149.75,0.75762
7126.6,0.78089
7103.46,0.76931
7080.31,0.77124
7057.17,0.81661
7034.02,0.81058
7010.88,0.81822
6987.74,0.81391
6964.59,0.82857
6941.45,0.81103
6918.3,0.82930
6895.16,0.83953
6872.01,0.82335
6848.87,0.83813
6825.72,0.83925
6802.58,0.81841
6779.43,0.84301
6756.29,0.84411
6733.15,0.85905
6710,0.87042
6686.86,0.86905
6663.71,0.86915
6640.57,0.86747
6617.42,0.86297
6594.28,0.87560
6571.13,0.87952
6547.99,0.86716
6524.84,0.88604
6501.7,0.87793
6478.55,0.89152
6455.41,0.88310
6432.27,0.87867
6409.12,0.88077
6385.98,0.88402
6362.83,0.87609
6339.69,0.86779
6316.54,0.85794
6293.4,0.85389
6270.25,0.84160
6247.11,0.82353
6223.96,0.80280
6200.82,0.77183
6177.68,0.69718
6154.53,0.68295
6131.39,0.61299
6108.24,0.54589
6085.1,0.41069
6061.95,0.32062
6038.81,0.21108
6015.66,0.08245
5992.52,0.04503
5969.37,0.14992
5946.23,0.18554
5923.08,0.15763
5899.94,0.20386
5876.8,0.27787
5853.65,0.42035
5830.51,0.44964
5807.36,0.46402
5784.22,0.43362
5761.07,0.39320
5737.93,0.49166
5714.78,0.59583
5691.64,0.61703
5668.49,0.55727
5645.35,0.58501
5622.21,0.66492
5599.06,0.68654
5575.92,0.67940
5552.77,0.66810
5529.63,0.67182
5506.48,0.67319
5483.34,0.65895
5460.19,0.65273
5437.05,0.67884
5413.9,0.67158
5390.76,0.67816
5367.61,0.68634
5344.47,0.66197
5321.33,0.67383
5298.18,0.64901
5275.04,0.54635
5251.89,0.55225
5228.75,0.66489
5205.6,0.69342
5182.46,0.69937
5159.31,0.69897
5136.17,0.71897
5113.02,0.72585
5089.88,0.72215
5066.74,0.71688
5043.59,0.72113
5020.45,0.70900
4997.3,0.69586
4974.16,0.68222
4951.01,0.67789
4927.87,0.66043
4904.72,0.60066
4881.58,0.56867
4858.43,0.52711
4835.29,0.51056
4812.14,0.53402
4789,0.52083
4765.86,0.45998
4742.71,0.36100
4719.57,0.18238
4696.42,0.03377
4673.28,0.02324
4650.13,0.04432
4626.99,0.02345
4603.84,0.18016
4580.7,0.12216
4557.55,0.22107
4534.41,0.27720
4511.27,0.28131
4488.12,0.19053
4464.98,0.16359
4441.83,0.08613
4418.69,0.01706
4395.54,0.01420
4372.4,0.01059
4349.25,0.00438
4326.11,0.00146
4302.96,0.00386
4279.82,0.00878
4256.67,0.01460
4233.53,0.01490
4210.39,0.00923
4187.24,0.00722
4164.1,0.00765
4140.95,0.02237
4117.81,0.01707
4094.66,0.00055
4071.52,0.00068
4048.37,0.00480
4025.23,0.02287
4002.08,0.02192
3978.94,0.02147
3955.8,0.03474
3932.65,0.02854
3909.51,0.01938
3886.36,0.01087
3863.22,0.04079
3840.07,0.07779
3816.93,0.07920
3793.78,0.10722
3770.64,0.11871
3747.49,0.05534
3724.35,0.07202
3701.2,0.01737
3678.06,0.00075
3654.92,0.00250
3631.77,0.02828
3608.63,0.05711
3585.48,0.00237
3562.34,0.00068
3539.19,0.00089
3516.05,0.00059
3492.9,0.01352
3469.76,0.02988
3446.61,0.06393
3423.47,0.09953
3400.33,0.09665
3377.18,0.06039
3354.04,0.05979
3330.89,0.05329
3307.75,0.02282
3284.6,0.01115
3261.46,0.00718
3238.31,0.00430
3215.17,0.00175
3192.02,0.00116
3168.88,0.00049
3145.73,0.00008
3122.59,0.00039
3099.45,0.00056
3076.3,0.00000
3053.16,0.00029
3030.01,0.00049
3006.87,0.00092
2983.72,0.00079
2960.58,0.00033
2937.43,0.00025
2914.29,0.00025
2891.14,0.00041
2868,0.00066
2844.86,0.00055
2821.71,0.00026
2798.57,0.00038
2775.42,0.00045
2752.28,0.00596
2729.13,0.00340
2705.99,0.00728
2682.84,0.02292
2659.7,0.02216
2636.55,0.04039
2613.41,0.00382
2590.26,0.00305
2567.12,0.01093
2543.98,0.00892
2520.83,0.00509
2497.69,0.00109
2474.54,0.00013
2451.4,0.00021
2428.25,0.00010
2405.11,0.00034
2381.96,0.00048
2358.82,0.00170
2335.67,0.00024
2312.53,0.00061
2289.39,0.00038
2266.24,0.00023
2243.1,0.00014
2219.95,0.00027
2196.81,0.00012
2173.66,0.00031
2150.52,0.00347
2127.37,0.00049
2104.23,0.00004
2081.08,0.00062
2057.94,0.00045
2034.79,0.00000
2011.65,0.00039
1988.51,0.00024
1965.36,0.00043
1942.22,0.00039
1919.07,0.00022
1895.93,0.00031
1872.78,0.00045
1849.64,0.00024
1826.49,0.00046
1803.35,0.00027
1780.2,0.00044
1757.06,0.00021
1733.92,0.00080
1710.77,0.00023
1687.63,0.00056
1664.48,0.00022
1641.34,0.00036
1618.19,0.00005
1595.05,0.00032
1571.9,0.00034
1548.76,0.00053
1525.61,0.00008
1502.47,0.00033
1479.32,0.00014
1456.18,0.00059
1433.04,0.00025
1409.89,0.00058
1386.75,0.00027
1363.6,0.00034
1340.46,0.00009
1317.31,0.00065
1294.17,0.00026
1271.02,0.00009
1247.88,0.00034
1224.73,0.00008
1201.59,0.00045
1178.45,0.00042
1155.3,0.00020
1132.16,-0.00001
1109.01,0.00119
1085.87,0.00078
1062.72,0.00065
1039.58,0.00037
1016.43,0.00044
993.288,0.00048
970.144,0.00041
946.999,0.00032
923.855,0.00037
900.71,0.00039
877.565,0.00052
854.421,0.00016
831.276,0.00001
808.132,0.00064
784.987,0.00078
761.843,0.00048
738.698,0.00098
715.553,0.00085
692.409,0.00131
669.264,0.00153
646.12,0.00253
622.975,0.00145
599.83,0.00208