File: 01_Data/PC/FTIR/IS/PC_2.93_S_IS_230516_R3.dpt
7496.92,0.09216
7473.77,0.06206
7450.63,0.08452
7427.48,0.07460
7404.34,0.10952
7381.19,0.08941
7358.05,0.09245
7334.9,0.10920
7311.76,0.06740
7288.62,0.08885
7265.47,0.07663
7242.33,0.09037
7219.18,0.09002
7196.04,0.07733
7172.89,0.06994
7149.75,0.08491
7126.6,0.07827
7103.46,0.07492
7080.31,0.07142
7057.17,0.07529
7034.02,0.06807
7010.88,0.08045
6987.74,0.08408
6964.59,0.09512
6941.45,0.10620
6918.3,0.07894
6895.16,0.08270
6872.01,0.10008
6848.87,0.09965
6825.72,0.08932
6802.58,0.09689
6779.43,0.09381
6756.29,0.10244
6733.15,0.07987
6710,0.10322
6686.86,0.10482
6663.71,0.09165
6640.57,0.10492
6617.42,0.11256
6594.28,0.10205
6571.13,0.10873
6547.99,0.10675
6524.84,0.10442
6501.7,0.10183
6478.55,0.12209
6455.41,0.10890
6432.27,0.11533
6409.12,0.10811
6385.98,0.10779
6362.83,0.10719
6339.69,0.10529
6316.54,0.10609
6293.4,0.10735
6270.25,0.10901
6247.11,0.10458
6223.96,0.09959
6200.82,0.09731
6177.68,0.08088
6154.53,0.08689
6131.39,0.06895
6108.24,0.06464
6085.1,0.05106
6061.95,0.04145
6038.81,0.04757
6015.66,0.03487
5992.52,0.04145
5969.37,0.03876
5946.23,0.04248
5923.08,0.04237
5899.94,0.04527
5876.8,0.04630
5853.65,0.05625
5830.51,0.06161
5807.36,0.06330
5784.22,0.06227
5761.07,0.05607
5737.93,0.06526
5714.78,0.07981
5691.64,0.08183
5668.49,0.07313
5645.35,0.07755
5622.21,0.09068
5599.06,0.09436
5575.92,0.09337
5552.77,0.09160
5529.63,0.09123
5506.48,0.09197
5483.34,0.09291
5460.19,0.09057
5437.05,0.09634
5413.9,0.09430
5390.76,0.09750
5367.61,0.09643
5344.47,0.09487
5321.33,0.09558
5298.18,0.09231
5275.04,0.07824
5251.89,0.07979
5228.75,0.09499
5205.6,0.10184
5182.46,0.10297
5159.31,0.10390
5136.17,0.10629
5113.02,0.10720
5089.88,0.10844
5066.74,0.10854
5043.59,0.10749
5020.45,0.10458
4997.3,0.10478
4974.16,0.10471
4951.01,0.10279
4927.87,0.09965
4904.72,0.09271
4881.58,0.08787
4858.43,0.08348
4835.29,0.07987
4812.14,0.08392
4789,0.08143
4765.86,0.07516
4742.71,0.06638
4719.57,0.05578
4696.42,0.05201
4673.28,0.05161
4650.13,0.05210
4626.99,0.05306
4603.84,0.05800
4580.7,0.05428
4557.55,0.06028
4534.41,0.06242
4511.27,0.06231
4488.12,0.05733
4464.98,0.05888
4441.83,0.05501
4418.69,0.05344
4395.54,0.05472
4372.4,0.05508
4349.25,0.05397
4326.11,0.05602
4302.96,0.05610
4279.82,0.05564
4256.67,0.05561
4233.53,0.05533
4210.39,0.05541
4187.24,0.05561
4164.1,0.05632
4140.95,0.05634
4117.81,0.05667
4094.66,0.05637
4071.52,0.05618
4048.37,0.05773
4025.23,0.05609
4002.08,0.05690
3978.94,0.05686
3955.8,0.05752
3932.65,0.05708
3909.51,0.05760
3886.36,0.05747
3863.22,0.05770
3840.07,0.05782
3816.93,0.05884
3793.78,0.06004
3770.64,0.05902
3747.49,0.05877
3724.35,0.05879
3701.2,0.05862
3678.06,0.05791
3654.92,0.05816
3631.77,0.05681
3608.63,0.05761
3585.48,0.05680
3562.34,0.05761
3539.19,0.05771
3516.05,0.05728
3492.9,0.05799
3469.76,0.05715
3446.61,0.05845
3423.47,0.05898
3400.33,0.05910
3377.18,0.05804
3354.04,0.05864
3330.89,0.05790
3307.75,0.05814
3284.6,0.05750
3261.46,0.05764
3238.31,0.05733
3215.17,0.05801
3192.02,0.05829
3168.88,0.05847
3145.73,0.05886
3122.59,0.05861
3099.45,0.05787
3076.3,0.05791
3053.16,0.05825
3030.01,0.05875
3006.87,0.05822
2983.72,0.05744
2960.58,0.06069
2937.43,0.06030
2914.29,0.06074
2891.14,0.05947
2868,0.06049
2844.86,0.06012
2821.71,0.06015
2798.57,0.06015
2775.42,0.06068
2752.28,0.06038
2729.13,0.06039
2705.99,0.06063
2682.84,0.06047
2659.7,0.06061
2636.55,0.06007
2613.41,0.06046
2590.26,0.06005
2567.12,0.06031
2543.98,0.06003
2520.83,0.06066
2497.69,0.06026
2474.54,0.06030
2451.4,0.06047
2428.25,0.06091
2405.11,0.06038
2381.96,0.06101
2358.82,0.06044
2335.67,0.06046
2312.53,0.06036
2289.39,0.06067
2266.24,0.06076
2243.1,0.06049
2219.95,0.06053
2196.81,0.06040
2173.66,0.06030
2150.52,0.06030
2127.37,0.05978
2104.23,0.05967
2081.08,0.05967
2057.94,0.05989
2034.79,0.05948
2011.65,0.05978
1988.51,0.05941
1965.36,0.05889
1942.22,0.05854
1919.07,0.05826
1895.93,0.05758
1872.78,0.05678
1849.64,0.05591
1826.49,0.05328
1803.35,0.04621
1780.2,0.06038
1757.06,0.07838
1733.92,0.06690
1710.77,0.06369
1687.63,0.06129
1664.48,0.05966
1641.34,0.05919
1618.19,0.05841
1595.05,0.05810
1571.9,0.05676
1548.76,0.05344
1525.61,0.04888
1502.47,0.07141
1479.32,0.06257
1456.18,0.06035
1433.04,0.05669
1409.89,0.05427
1386.75,0.05327
1363.6,0.05213
1340.46,0.04748
1317.31,0.04013
1294.17,0.03420
1271.02,0.02214
1247.88,0.09652
1224.73,0.13931
1201.59,0.09116
1178.45,0.11071
1155.3,0.13834
1132.16,0.09918
1109.01,0.08769
1085.87,0.07720
1062.72,0.08446
1039.58,0.07747
1016.43,0.07910
993.288,0.08652
970.144,0.08007
946.999,0.07663
923.855,0.07535
900.71,0.07076
877.565,0.07427
854.421,0.06591
831.276,0.07875
808.132,0.08503
784.987,0.07537
761.843,0.07982
738.698,0.07717
715.553,0.07527
692.409,0.07644
669.264,0.07633
646.12,0.07376
622.975,0.07245
599.83,0.06877