File: 01_Data/PC/FTIR/IS/PC_IS_S_230508_R5.dpt
7496.92,0.12468
7473.77,0.12487
7450.63,0.11292
7427.48,0.12090
7404.34,0.12214
7381.19,0.11089
7358.05,0.10116
7334.9,0.11288
7311.76,0.09432
7288.62,0.10053
7265.47,0.09765
7242.33,0.10785
7219.18,0.10844
7196.04,0.09872
7172.89,0.10056
7149.75,0.10300
7126.6,0.10372
7103.46,0.10143
7080.31,0.10780
7057.17,0.10761
7034.02,0.10812
7010.88,0.10405
6987.74,0.11068
6964.59,0.12484
6941.45,0.11530
6918.3,0.11888
6895.16,0.11062
6872.01,0.11827
6848.87,0.12195
6825.72,0.10888
6802.58,0.11874
6779.43,0.11761
6756.29,0.11820
6733.15,0.12373
6710,0.12385
6686.86,0.12333
6663.71,0.12552
6640.57,0.12847
6617.42,0.12785
6594.28,0.12698
6571.13,0.13288
6547.99,0.12528
6524.84,0.12986
6501.7,0.12266
6478.55,0.12777
6455.41,0.12898
6432.27,0.12976
6409.12,0.13073
6385.98,0.12588
6362.83,0.12860
6339.69,0.12863
6316.54,0.12272
6293.4,0.12423
6270.25,0.11902
6247.11,0.11545
6223.96,0.10854
6200.82,0.10066
6177.68,0.08801
6154.53,0.08633
6131.39,0.07620
6108.24,0.06937
6085.1,0.06083
6061.95,0.05666
6038.81,0.05923
6015.66,0.05926
5992.52,0.05612
5969.37,0.05470
5946.23,0.05436
5923.08,0.05804
5899.94,0.05738
5876.8,0.05766
5853.65,0.06231
5830.51,0.06407
5807.36,0.06378
5784.22,0.06368
5761.07,0.06421
5737.93,0.06777
5714.78,0.07522
5691.64,0.07869
5668.49,0.07096
5645.35,0.07233
5622.21,0.08346
5599.06,0.08681
5575.92,0.08752
5552.77,0.08633
5529.63,0.08615
5506.48,0.08568
5483.34,0.08276
5460.19,0.08405
5437.05,0.08757
5413.9,0.08626
5390.76,0.08683
5367.61,0.08930
5344.47,0.08589
5321.33,0.08750
5298.18,0.08394
5275.04,0.07009
5251.89,0.07144
5228.75,0.08416
5205.6,0.09242
5182.46,0.09342
5159.31,0.09204
5136.17,0.09748
5113.02,0.09848
5089.88,0.09811
5066.74,0.09693
5043.59,0.09961
5020.45,0.09576
4997.3,0.09417
4974.16,0.09265
4951.01,0.09154
4927.87,0.08778
4904.72,0.07823
4881.58,0.07653
4858.43,0.07182
4835.29,0.07134
4812.14,0.07421
4789,0.07215
4765.86,0.06774
4742.71,0.06398
4719.57,0.06142
4696.42,0.06173
4673.28,0.06156
4650.13,0.06262
4626.99,0.06206
4603.84,0.06126
4580.7,0.06169
4557.55,0.06201
4534.41,0.06380
4511.27,0.06189
4488.12,0.06166
4464.98,0.06281
4441.83,0.06243
4418.69,0.06228
4395.54,0.06120
4372.4,0.06145
4349.25,0.06260
4326.11,0.06265
4302.96,0.06198
4279.82,0.06251
4256.67,0.06262
4233.53,0.06157
4210.39,0.06236
4187.24,0.06273
4164.1,0.06214
4140.95,0.06296
4117.81,0.06308
4094.66,0.06305
4071.52,0.06256
4048.37,0.06308
4025.23,0.06290
4002.08,0.06361
3978.94,0.06287
3955.8,0.06328
3932.65,0.06358
3909.51,0.06349
3886.36,0.06316
3863.22,0.06253
3840.07,0.06474
3816.93,0.06286
3793.78,0.06354
3770.64,0.06270
3747.49,0.06183
3724.35,0.06446
3701.2,0.06296
3678.06,0.06429
3654.92,0.06261
3631.77,0.06203
3608.63,0.06283
3585.48,0.06142
3562.34,0.06202
3539.19,0.06195
3516.05,0.06312
3492.9,0.06301
3469.76,0.06158
3446.61,0.06247
3423.47,0.06239
3400.33,0.06224
3377.18,0.06227
3354.04,0.06130
3330.89,0.06153
3307.75,0.06224
3284.6,0.06226
3261.46,0.06203
3238.31,0.06249
3215.17,0.06204
3192.02,0.06185
3168.88,0.06180
3145.73,0.06228
3122.59,0.06197
3099.45,0.06176
3076.3,0.06218
3053.16,0.06180
3030.01,0.06198
3006.87,0.06091
2983.72,0.05995
2960.58,0.06430
2937.43,0.06358
2914.29,0.06402
2891.14,0.06341
2868,0.06396
2844.86,0.06347
2821.71,0.06320
2798.57,0.06338
2775.42,0.06320
2752.28,0.06364
2729.13,0.06378
2705.99,0.06312
2682.84,0.06290
2659.7,0.06323
2636.55,0.06322
2613.41,0.06307
2590.26,0.06280
2567.12,0.06261
2543.98,0.06279
2520.83,0.06290
2497.69,0.06289
2474.54,0.06248
2451.4,0.06274
2428.25,0.06238
2405.11,0.06296
2381.96,0.06307
2358.82,0.06278
2335.67,0.06504
2312.53,0.06234
2289.39,0.06208
2266.24,0.06210
2243.1,0.06234
2219.95,0.06256
2196.81,0.06223
2173.66,0.06240
2150.52,0.06211
2127.37,0.06203
2104.23,0.06140
2081.08,0.06150
2057.94,0.06140
2034.79,0.06117
2011.65,0.06085
1988.51,0.06088
1965.36,0.06065
1942.22,0.05964
1919.07,0.05946
1895.93,0.05896
1872.78,0.05797
1849.64,0.05655
1826.49,0.05454
1803.35,0.04723
1780.2,0.05995
1757.06,0.08037
1733.92,0.06900
1710.77,0.06503
1687.63,0.06284
1664.48,0.06048
1641.34,0.06056
1618.19,0.05954
1595.05,0.05931
1571.9,0.05787
1548.76,0.05483
1525.61,0.05029
1502.47,0.07249
1479.32,0.06336
1456.18,0.06020
1433.04,0.05768
1409.89,0.05535
1386.75,0.05422
1363.6,0.05227
1340.46,0.04847
1317.31,0.04051
1294.17,0.03480
1271.02,0.02211
1247.88,0.09403
1224.73,0.13834
1201.59,0.08965
1178.45,0.11146
1155.3,0.13866
1132.16,0.09952
1109.01,0.08895
1085.87,0.07753
1062.72,0.08474
1039.58,0.07751
1016.43,0.07989
993.288,0.08718
970.144,0.08119
946.999,0.07750
923.855,0.07501
900.71,0.07112
877.565,0.07552
854.421,0.06545
831.276,0.07881
808.132,0.08448
784.987,0.07563
761.843,0.08031
738.698,0.07734
715.553,0.07498
692.409,0.07757
669.264,0.07484
646.12,0.07307
622.975,0.07076
599.83,0.06857