File: 01_Data/PC/FTIR/IS/PC_IS_S_230508_R1.dpt
7496.92,0.12646
7473.77,0.12208
7450.63,0.12141
7427.48,0.12729
7404.34,0.12343
7381.19,0.10014
7358.05,0.12857
7334.9,0.10313
7311.76,0.10677
7288.62,0.09677
7265.47,0.09757
7242.33,0.10023
7219.18,0.10387
7196.04,0.10209
7172.89,0.10467
7149.75,0.09759
7126.6,0.10042
7103.46,0.09761
7080.31,0.09928
7057.17,0.11071
7034.02,0.11224
7010.88,0.11524
6987.74,0.11457
6964.59,0.11658
6941.45,0.11641
6918.3,0.12136
6895.16,0.11585
6872.01,0.10916
6848.87,0.11341
6825.72,0.11956
6802.58,0.12041
6779.43,0.11673
6756.29,0.11823
6733.15,0.12675
6710,0.11676
6686.86,0.11046
6663.71,0.12552
6640.57,0.12635
6617.42,0.12814
6594.28,0.12649
6571.13,0.12968
6547.99,0.13044
6524.84,0.13039
6501.7,0.13097
6478.55,0.12992
6455.41,0.13013
6432.27,0.12770
6409.12,0.12964
6385.98,0.13146
6362.83,0.12785
6339.69,0.12932
6316.54,0.12358
6293.4,0.12430
6270.25,0.11707
6247.11,0.11009
6223.96,0.11174
6200.82,0.10341
6177.68,0.08733
6154.53,0.08642
6131.39,0.07116
6108.24,0.06875
6085.1,0.06060
6061.95,0.06009
6038.81,0.05470
6015.66,0.05368
5992.52,0.05727
5969.37,0.05632
5946.23,0.05701
5923.08,0.05737
5899.94,0.05775
5876.8,0.05560
5853.65,0.06315
5830.51,0.06346
5807.36,0.06557
5784.22,0.05962
5761.07,0.06233
5737.93,0.06539
5714.78,0.07543
5691.64,0.07380
5668.49,0.07063
5645.35,0.07244
5622.21,0.08433
5599.06,0.08807
5575.92,0.08601
5552.77,0.08682
5529.63,0.08343
5506.48,0.08663
5483.34,0.08437
5460.19,0.08318
5437.05,0.08912
5413.9,0.08680
5390.76,0.08851
5367.61,0.08722
5344.47,0.08781
5321.33,0.08746
5298.18,0.08455
5275.04,0.07242
5251.89,0.07207
5228.75,0.08680
5205.6,0.09232
5182.46,0.09041
5159.31,0.09184
5136.17,0.09672
5113.02,0.09868
5089.88,0.09657
5066.74,0.09755
5043.59,0.09580
5020.45,0.09565
4997.3,0.09274
4974.16,0.09018
4951.01,0.08989
4927.87,0.08857
4904.72,0.07965
4881.58,0.07730
4858.43,0.07166
4835.29,0.07132
4812.14,0.07319
4789,0.07169
4765.86,0.06781
4742.71,0.06369
4719.57,0.06212
4696.42,0.06109
4673.28,0.06150
4650.13,0.06164
4626.99,0.06059
4603.84,0.06217
4580.7,0.06096
4557.55,0.06255
4534.41,0.06229
4511.27,0.06275
4488.12,0.06180
4464.98,0.06168
4441.83,0.06104
4418.69,0.06168
4395.54,0.06173
4372.4,0.06198
4349.25,0.06195
4326.11,0.06171
4302.96,0.06141
4279.82,0.06223
4256.67,0.06151
4233.53,0.06179
4210.39,0.06211
4187.24,0.06277
4164.1,0.06254
4140.95,0.06211
4117.81,0.06225
4094.66,0.06203
4071.52,0.06208
4048.37,0.06296
4025.23,0.06281
4002.08,0.06315
3978.94,0.06264
3955.8,0.06330
3932.65,0.06246
3909.51,0.06397
3886.36,0.06241
3863.22,0.06212
3840.07,0.06233
3816.93,0.06238
3793.78,0.06349
3770.64,0.06358
3747.49,0.06168
3724.35,0.06333
3701.2,0.06219
3678.06,0.06207
3654.92,0.06229
3631.77,0.06298
3608.63,0.06241
3585.48,0.06180
3562.34,0.06217
3539.19,0.06207
3516.05,0.06253
3492.9,0.06190
3469.76,0.06181
3446.61,0.06186
3423.47,0.06101
3400.33,0.06254
3377.18,0.06148
3354.04,0.06150
3330.89,0.06168
3307.75,0.06104
3284.6,0.06159
3261.46,0.06213
3238.31,0.06143
3215.17,0.06210
3192.02,0.06205
3168.88,0.06191
3145.73,0.06145
3122.59,0.06179
3099.45,0.06174
3076.3,0.06157
3053.16,0.06141
3030.01,0.06165
3006.87,0.06110
2983.72,0.06016
2960.58,0.06450
2937.43,0.06469
2914.29,0.06519
2891.14,0.06398
2868,0.06432
2844.86,0.06344
2821.71,0.06350
2798.57,0.06339
2775.42,0.06329
2752.28,0.06343
2729.13,0.06334
2705.99,0.06302
2682.84,0.06321
2659.7,0.06279
2636.55,0.06274
2613.41,0.06288
2590.26,0.06247
2567.12,0.06247
2543.98,0.06243
2520.83,0.06227
2497.69,0.06219
2474.54,0.06256
2451.4,0.06267
2428.25,0.06245
2405.11,0.06290
2381.96,0.06313
2358.82,0.06296
2335.67,0.06135
2312.53,0.06295
2289.39,0.06256
2266.24,0.06191
2243.1,0.06194
2219.95,0.06203
2196.81,0.06187
2173.66,0.06193
2150.52,0.06225
2127.37,0.06172
2104.23,0.06144
2081.08,0.06134
2057.94,0.06101
2034.79,0.06073
2011.65,0.06064
1988.51,0.06083
1965.36,0.06025
1942.22,0.05985
1919.07,0.05906
1895.93,0.05877
1872.78,0.05793
1849.64,0.05645
1826.49,0.05389
1803.35,0.04736
1780.2,0.05873
1757.06,0.07954
1733.92,0.06791
1710.77,0.06487
1687.63,0.06186
1664.48,0.06059
1641.34,0.06029
1618.19,0.05933
1595.05,0.05930
1571.9,0.05740
1548.76,0.05492
1525.61,0.04929
1502.47,0.07194
1479.32,0.06316
1456.18,0.05943
1433.04,0.05701
1409.89,0.05450
1386.75,0.05388
1363.6,0.05250
1340.46,0.04764
1317.31,0.04060
1294.17,0.03471
1271.02,0.02208
1247.88,0.09231
1224.73,0.13600
1201.59,0.08875
1178.45,0.11060
1155.3,0.13779
1132.16,0.09973
1109.01,0.08747
1085.87,0.07785
1062.72,0.08459
1039.58,0.07753
1016.43,0.07842
993.288,0.08607
970.144,0.08044
946.999,0.07755
923.855,0.07453
900.71,0.07045
877.565,0.07486
854.421,0.06571
831.276,0.07725
808.132,0.08484
784.987,0.07419
761.843,0.07925
738.698,0.07778
715.553,0.07545
692.409,0.07520
669.264,0.07447
646.12,0.07124
622.975,0.07034
599.83,0.06854