File: 01_Data/PC/FTIR/IS/PC_IS_S_230508_R7.dpt
7496.92,0.13305
7473.77,0.12120
7450.63,0.11489
7427.48,0.12195
7404.34,0.11850
7381.19,0.10814
7358.05,0.10567
7334.9,0.10402
7311.76,0.10405
7288.62,0.09241
7265.47,0.08853
7242.33,0.09469
7219.18,0.09671
7196.04,0.09587
7172.89,0.10289
7149.75,0.10341
7126.6,0.10118
7103.46,0.10515
7080.31,0.10080
7057.17,0.11522
7034.02,0.10569
7010.88,0.11288
6987.74,0.11721
6964.59,0.10970
6941.45,0.12110
6918.3,0.11517
6895.16,0.11172
6872.01,0.11905
6848.87,0.11535
6825.72,0.11870
6802.58,0.10903
6779.43,0.11283
6756.29,0.11818
6733.15,0.12568
6710,0.12465
6686.86,0.12446
6663.71,0.12468
6640.57,0.12394
6617.42,0.12466
6594.28,0.12430
6571.13,0.13498
6547.99,0.13229
6524.84,0.13141
6501.7,0.13413
6478.55,0.12991
6455.41,0.12809
6432.27,0.12965
6409.12,0.12382
6385.98,0.12857
6362.83,0.12512
6339.69,0.12959
6316.54,0.12459
6293.4,0.12047
6270.25,0.11742
6247.11,0.11621
6223.96,0.10909
6200.82,0.10283
6177.68,0.08737
6154.53,0.08480
6131.39,0.07375
6108.24,0.07140
6085.1,0.06003
6061.95,0.05809
6038.81,0.05491
6015.66,0.05775
5992.52,0.05699
5969.37,0.05654
5946.23,0.05604
5923.08,0.05543
5899.94,0.05485
5876.8,0.05809
5853.65,0.06236
5830.51,0.06173
5807.36,0.06420
5784.22,0.06100
5761.07,0.06011
5737.93,0.06349
5714.78,0.07632
5691.64,0.07647
5668.49,0.07126
5645.35,0.07498
5622.21,0.08292
5599.06,0.08735
5575.92,0.08669
5552.77,0.08653
5529.63,0.08603
5506.48,0.08780
5483.34,0.08389
5460.19,0.08366
5437.05,0.08608
5413.9,0.08966
5390.76,0.08830
5367.61,0.08965
5344.47,0.08490
5321.33,0.08748
5298.18,0.08442
5275.04,0.07212
5251.89,0.07101
5228.75,0.08529
5205.6,0.09227
5182.46,0.09204
5159.31,0.09300
5136.17,0.09597
5113.02,0.09911
5089.88,0.09795
5066.74,0.09592
5043.59,0.09775
5020.45,0.09577
4997.3,0.09294
4974.16,0.09267
4951.01,0.08927
4927.87,0.08681
4904.72,0.07983
4881.58,0.07499
4858.43,0.07265
4835.29,0.07061
4812.14,0.07228
4789,0.07207
4765.86,0.06775
4742.71,0.06363
4719.57,0.06038
4696.42,0.06176
4673.28,0.06081
4650.13,0.06221
4626.99,0.06119
4603.84,0.06148
4580.7,0.06165
4557.55,0.06198
4534.41,0.06238
4511.27,0.06304
4488.12,0.06165
4464.98,0.06193
4441.83,0.06161
4418.69,0.06190
4395.54,0.06201
4372.4,0.06154
4349.25,0.06167
4326.11,0.06274
4302.96,0.06172
4279.82,0.06175
4256.67,0.06180
4233.53,0.06220
4210.39,0.06333
4187.24,0.06255
4164.1,0.06220
4140.95,0.06232
4117.81,0.06212
4094.66,0.06212
4071.52,0.06251
4048.37,0.06242
4025.23,0.06252
4002.08,0.06261
3978.94,0.06236
3955.8,0.06200
3932.65,0.06259
3909.51,0.06276
3886.36,0.06339
3863.22,0.06281
3840.07,0.06303
3816.93,0.06252
3793.78,0.06251
3770.64,0.06317
3747.49,0.06179
3724.35,0.06252
3701.2,0.06260
3678.06,0.06409
3654.92,0.06281
3631.77,0.06265
3608.63,0.06277
3585.48,0.06172
3562.34,0.06123
3539.19,0.06187
3516.05,0.06164
3492.9,0.06161
3469.76,0.06269
3446.61,0.06203
3423.47,0.06234
3400.33,0.06140
3377.18,0.06090
3354.04,0.06094
3330.89,0.06134
3307.75,0.06074
3284.6,0.06103
3261.46,0.06196
3238.31,0.06207
3215.17,0.06176
3192.02,0.06225
3168.88,0.06172
3145.73,0.06226
3122.59,0.06165
3099.45,0.06191
3076.3,0.06140
3053.16,0.06149
3030.01,0.06204
3006.87,0.06140
2983.72,0.05954
2960.58,0.06401
2937.43,0.06399
2914.29,0.06428
2891.14,0.06274
2868,0.06348
2844.86,0.06354
2821.71,0.06292
2798.57,0.06294
2775.42,0.06258
2752.28,0.06292
2729.13,0.06296
2705.99,0.06300
2682.84,0.06292
2659.7,0.06292
2636.55,0.06274
2613.41,0.06280
2590.26,0.06260
2567.12,0.06255
2543.98,0.06255
2520.83,0.06239
2497.69,0.06257
2474.54,0.06253
2451.4,0.06240
2428.25,0.06252
2405.11,0.06213
2381.96,0.06341
2358.82,0.06172
2335.67,0.06329
2312.53,0.06214
2289.39,0.06212
2266.24,0.06214
2243.1,0.06190
2219.95,0.06170
2196.81,0.06188
2173.66,0.06153
2150.52,0.06137
2127.37,0.06144
2104.23,0.06139
2081.08,0.06085
2057.94,0.06100
2034.79,0.06064
2011.65,0.06060
1988.51,0.06076
1965.36,0.06026
1942.22,0.05994
1919.07,0.05881
1895.93,0.05875
1872.78,0.05795
1849.64,0.05653
1826.49,0.05387
1803.35,0.04688
1780.2,0.05920
1757.06,0.07988
1733.92,0.06821
1710.77,0.06465
1687.63,0.06231
1664.48,0.06094
1641.34,0.05999
1618.19,0.05854
1595.05,0.05877
1571.9,0.05776
1548.76,0.05492
1525.61,0.05033
1502.47,0.07189
1479.32,0.06324
1456.18,0.05980
1433.04,0.05694
1409.89,0.05456
1386.75,0.05316
1363.6,0.05225
1340.46,0.04806
1317.31,0.04023
1294.17,0.03460
1271.02,0.02224
1247.88,0.09367
1224.73,0.13750
1201.59,0.08936
1178.45,0.11139
1155.3,0.13840
1132.16,0.09966
1109.01,0.08743
1085.87,0.07748
1062.72,0.08392
1039.58,0.07684
1016.43,0.07830
993.288,0.08656
970.144,0.07953
946.999,0.07746
923.855,0.07442
900.71,0.07103
877.565,0.07464
854.421,0.06666
831.276,0.07776
808.132,0.08379
784.987,0.07431
761.843,0.07972
738.698,0.07747
715.553,0.07572
692.409,0.07686
669.264,0.07564
646.12,0.07158
622.975,0.07055
599.83,0.06652