File: 01_Data/PC/FTIR/IS/PC_IS_T_230508_R5.dpt
7496.92,0.02799
7473.77,0.01875
7450.63,0.01874
7427.48,0.03589
7404.34,0.02813
7381.19,0.02940
7358.05,0.02522
7334.9,0.02996
7311.76,0.02951
7288.62,0.02305
7265.47,0.02185
7242.33,0.03183
7219.18,0.02959
7196.04,0.02823
7172.89,0.01860
7149.75,0.02919
7126.6,0.02731
7103.46,0.01963
7080.31,0.02886
7057.17,0.02152
7034.02,0.02078
7010.88,0.02725
6987.74,0.02701
6964.59,0.02468
6941.45,0.02502
6918.3,0.02803
6895.16,0.02873
6872.01,0.02707
6848.87,0.02176
6825.72,0.01782
6802.58,0.02269
6779.43,0.02375
6756.29,0.02400
6733.15,0.02772
6710,0.02258
6686.86,0.02223
6663.71,0.02610
6640.57,0.02683
6617.42,0.02277
6594.28,0.02428
6571.13,0.02463
6547.99,0.01982
6524.84,0.02476
6501.7,0.02704
6478.55,0.02554
6455.41,0.02196
6432.27,0.02282
6409.12,0.02595
6385.98,0.02261
6362.83,0.02689
6339.69,0.02585
6316.54,0.02375
6293.4,0.02626
6270.25,0.02086
6247.11,0.02430
6223.96,0.02516
6200.82,0.02543
6177.68,0.02227
6154.53,0.02122
6131.39,0.02703
6108.24,0.02338
6085.1,0.02210
6061.95,0.02394
6038.81,0.02310
6015.66,0.02086
5992.52,0.02366
5969.37,0.02711
5946.23,0.02422
5923.08,0.02653
5899.94,0.02412
5876.8,0.02357
5853.65,0.02155
5830.51,0.02324
5807.36,0.02518
5784.22,0.02183
5761.07,0.02167
5737.93,0.02290
5714.78,0.02196
5691.64,0.02295
5668.49,0.02249
5645.35,0.02314
5622.21,0.02485
5599.06,0.02348
5575.92,0.02190
5552.77,0.02493
5529.63,0.02197
5506.48,0.02577
5483.34,0.02370
5460.19,0.02421
5437.05,0.02410
5413.9,0.02446
5390.76,0.02179
5367.61,0.02249
5344.47,0.02266
5321.33,0.02295
5298.18,0.02400
5275.04,0.02392
5251.89,0.02326
5228.75,0.02355
5205.6,0.02393
5182.46,0.02639
5159.31,0.02277
5136.17,0.02210
5113.02,0.02451
5089.88,0.02398
5066.74,0.02441
5043.59,0.02298
5020.45,0.02468
4997.3,0.02368
4974.16,0.02458
4951.01,0.02325
4927.87,0.02369
4904.72,0.02179
4881.58,0.02357
4858.43,0.02387
4835.29,0.02408
4812.14,0.02289
4789,0.02459
4765.86,0.02396
4742.71,0.02300
4719.57,0.02423
4696.42,0.02358
4673.28,0.02364
4650.13,0.02358
4626.99,0.02396
4603.84,0.02417
4580.7,0.02388
4557.55,0.02381
4534.41,0.02340
4511.27,0.02488
4488.12,0.02363
4464.98,0.02416
4441.83,0.02371
4418.69,0.02376
4395.54,0.02458
4372.4,0.02361
4349.25,0.02423
4326.11,0.02466
4302.96,0.02387
4279.82,0.02456
4256.67,0.02340
4233.53,0.02362
4210.39,0.02459
4187.24,0.02434
4164.1,0.02398
4140.95,0.02414
4117.81,0.02412
4094.66,0.02522
4071.52,0.02440
4048.37,0.02416
4025.23,0.02487
4002.08,0.02494
3978.94,0.02456
3955.8,0.02455
3932.65,0.02410
3909.51,0.02453
3886.36,0.02555
3863.22,0.02401
3840.07,0.02485
3816.93,0.02437
3793.78,0.02399
3770.64,0.02467
3747.49,0.02277
3724.35,0.02404
3701.2,0.02359
3678.06,0.02525
3654.92,0.02377
3631.77,0.02333
3608.63,0.02256
3585.48,0.02207
3562.34,0.02261
3539.19,0.02254
3516.05,0.02108
3492.9,0.02146
3469.76,0.02193
3446.61,0.02245
3423.47,0.02256
3400.33,0.02172
3377.18,0.02176
3354.04,0.02193
3330.89,0.02217
3307.75,0.02200
3284.6,0.02161
3261.46,0.02163
3238.31,0.02293
3215.17,0.02229
3192.02,0.02278
3168.88,0.02278
3145.73,0.02283
3122.59,0.02259
3099.45,0.02289
3076.3,0.02275
3053.16,0.02258
3030.01,0.02299
3006.87,0.02232
2983.72,0.02243
2960.58,0.02146
2937.43,0.02205
2914.29,0.02165
2891.14,0.02244
2868,0.02232
2844.86,0.02285
2821.71,0.02346
2798.57,0.02364
2775.42,0.02347
2752.28,0.02340
2729.13,0.02328
2705.99,0.02370
2682.84,0.02337
2659.7,0.02339
2636.55,0.02349
2613.41,0.02329
2590.26,0.02383
2567.12,0.02381
2543.98,0.02328
2520.83,0.02360
2497.69,0.02358
2474.54,0.02358
2451.4,0.02309
2428.25,0.02349
2405.11,0.02339
2381.96,0.02401
2358.82,0.02514
2335.67,0.02329
2312.53,0.02371
2289.39,0.02370
2266.24,0.02359
2243.1,0.02350
2219.95,0.02328
2196.81,0.02355
2173.66,0.02299
2150.52,0.02327
2127.37,0.02310
2104.23,0.02330
2081.08,0.02335
2057.94,0.02311
2034.79,0.02370
2011.65,0.02310
1988.51,0.02310
1965.36,0.02331
1942.22,0.02299
1919.07,0.02307
1895.93,0.02294
1872.78,0.02284
1849.64,0.02258
1826.49,0.02231
1803.35,0.02215
1780.2,0.02152
1757.06,0.01946
1733.92,0.02046
1710.77,0.02261
1687.63,0.02199
1664.48,0.02070
1641.34,0.02071
1618.19,0.02130
1595.05,0.02101
1571.9,0.02137
1548.76,0.02049
1525.61,0.02102
1502.47,0.02063
1479.32,0.02071
1456.18,0.02082
1433.04,0.02010
1409.89,0.01982
1386.75,0.01991
1363.6,0.01946
1340.46,0.01980
1317.31,0.01919
1294.17,0.01929
1271.02,0.02110
1247.88,0.02208
1224.73,0.02119
1201.59,0.02089
1178.45,0.01978
1155.3,0.01896
1132.16,0.01992
1109.01,0.02018
1085.87,0.01999
1062.72,0.02122
1039.58,0.02121
1016.43,0.02075
993.288,0.02281
970.144,0.02260
946.999,0.02181
923.855,0.02139
900.71,0.02078
877.565,0.02106
854.421,0.02124
831.276,0.02014
808.132,0.02037
784.987,0.02004
761.843,0.01935
738.698,0.01919
715.553,0.01902
692.409,0.01795
669.264,0.01577
646.12,0.01745
622.975,0.01781
599.83,0.01814