File: 01_Data/PC/FTIR/IS/PC_IS_S_230508_R6.dpt
7496.92,0.11923
7473.77,0.12532
7450.63,0.10982
7427.48,0.12303
7404.34,0.11954
7381.19,0.10879
7358.05,0.11003
7334.9,0.09629
7311.76,0.09678
7288.62,0.09532
7265.47,0.09618
7242.33,0.10152
7219.18,0.09296
7196.04,0.10055
7172.89,0.09107
7149.75,0.09596
7126.6,0.10634
7103.46,0.09959
7080.31,0.10292
7057.17,0.11453
7034.02,0.10774
7010.88,0.10554
6987.74,0.11362
6964.59,0.10694
6941.45,0.12050
6918.3,0.11407
6895.16,0.11041
6872.01,0.11387
6848.87,0.11643
6825.72,0.11524
6802.58,0.11797
6779.43,0.11830
6756.29,0.11880
6733.15,0.11347
6710,0.11995
6686.86,0.11932
6663.71,0.12797
6640.57,0.13065
6617.42,0.12708
6594.28,0.12186
6571.13,0.12276
6547.99,0.12944
6524.84,0.13182
6501.7,0.12845
6478.55,0.13194
6455.41,0.12528
6432.27,0.12780
6409.12,0.12874
6385.98,0.12366
6362.83,0.12402
6339.69,0.13142
6316.54,0.12378
6293.4,0.11961
6270.25,0.11497
6247.11,0.11572
6223.96,0.11256
6200.82,0.09716
6177.68,0.08811
6154.53,0.08329
6131.39,0.07444
6108.24,0.06982
6085.1,0.05779
6061.95,0.05916
6038.81,0.05833
6015.66,0.05630
5992.52,0.05868
5969.37,0.05783
5946.23,0.05553
5923.08,0.05840
5899.94,0.05937
5876.8,0.05853
5853.65,0.06209
5830.51,0.06384
5807.36,0.06258
5784.22,0.06447
5761.07,0.06166
5737.93,0.06802
5714.78,0.07562
5691.64,0.07686
5668.49,0.06868
5645.35,0.07124
5622.21,0.08446
5599.06,0.09104
5575.92,0.08757
5552.77,0.08743
5529.63,0.08640
5506.48,0.08606
5483.34,0.08302
5460.19,0.08540
5437.05,0.08748
5413.9,0.08851
5390.76,0.08575
5367.61,0.08968
5344.47,0.08972
5321.33,0.08804
5298.18,0.08325
5275.04,0.07314
5251.89,0.07318
5228.75,0.08741
5205.6,0.09311
5182.46,0.09198
5159.31,0.09228
5136.17,0.09614
5113.02,0.09852
5089.88,0.09796
5066.74,0.09550
5043.59,0.09755
5020.45,0.09586
4997.3,0.09353
4974.16,0.08986
4951.01,0.08950
4927.87,0.08701
4904.72,0.07827
4881.58,0.07559
4858.43,0.07099
4835.29,0.07008
4812.14,0.07310
4789,0.07219
4765.86,0.06790
4742.71,0.06305
4719.57,0.06144
4696.42,0.06231
4673.28,0.06109
4650.13,0.06200
4626.99,0.06194
4603.84,0.06130
4580.7,0.06247
4557.55,0.06175
4534.41,0.06248
4511.27,0.06207
4488.12,0.06196
4464.98,0.06207
4441.83,0.06166
4418.69,0.06174
4395.54,0.06106
4372.4,0.06214
4349.25,0.06224
4326.11,0.06119
4302.96,0.06152
4279.82,0.06225
4256.67,0.06223
4233.53,0.06174
4210.39,0.06198
4187.24,0.06213
4164.1,0.06225
4140.95,0.06207
4117.81,0.06268
4094.66,0.06263
4071.52,0.06216
4048.37,0.06293
4025.23,0.06207
4002.08,0.06312
3978.94,0.06198
3955.8,0.06260
3932.65,0.06297
3909.51,0.06314
3886.36,0.06266
3863.22,0.06260
3840.07,0.06416
3816.93,0.06247
3793.78,0.06269
3770.64,0.06280
3747.49,0.06317
3724.35,0.06242
3701.2,0.06245
3678.06,0.06350
3654.92,0.06245
3631.77,0.06295
3608.63,0.06251
3585.48,0.06144
3562.34,0.06234
3539.19,0.06225
3516.05,0.06183
3492.9,0.06130
3469.76,0.06164
3446.61,0.06121
3423.47,0.06180
3400.33,0.06139
3377.18,0.06109
3354.04,0.06181
3330.89,0.06143
3307.75,0.06135
3284.6,0.06176
3261.46,0.06135
3238.31,0.06162
3215.17,0.06193
3192.02,0.06154
3168.88,0.06184
3145.73,0.06143
3122.59,0.06182
3099.45,0.06162
3076.3,0.06160
3053.16,0.06113
3030.01,0.06130
3006.87,0.06100
2983.72,0.05995
2960.58,0.06377
2937.43,0.06347
2914.29,0.06333
2891.14,0.06322
2868,0.06413
2844.86,0.06347
2821.71,0.06335
2798.57,0.06271
2775.42,0.06258
2752.28,0.06265
2729.13,0.06264
2705.99,0.06269
2682.84,0.06300
2659.7,0.06301
2636.55,0.06243
2613.41,0.06247
2590.26,0.06228
2567.12,0.06237
2543.98,0.06243
2520.83,0.06184
2497.69,0.06246
2474.54,0.06246
2451.4,0.06231
2428.25,0.06240
2405.11,0.06233
2381.96,0.06243
2358.82,0.06565
2335.67,0.06245
2312.53,0.06253
2289.39,0.06199
2266.24,0.06206
2243.1,0.06176
2219.95,0.06162
2196.81,0.06158
2173.66,0.06156
2150.52,0.06137
2127.37,0.06152
2104.23,0.06089
2081.08,0.06065
2057.94,0.06037
2034.79,0.06102
2011.65,0.06074
1988.51,0.06062
1965.36,0.05976
1942.22,0.05933
1919.07,0.05887
1895.93,0.05819
1872.78,0.05790
1849.64,0.05619
1826.49,0.05356
1803.35,0.04705
1780.2,0.05983
1757.06,0.07944
1733.92,0.06796
1710.77,0.06442
1687.63,0.06224
1664.48,0.06067
1641.34,0.05937
1618.19,0.05832
1595.05,0.05881
1571.9,0.05752
1548.76,0.05485
1525.61,0.04837
1502.47,0.07174
1479.32,0.06320
1456.18,0.05977
1433.04,0.05673
1409.89,0.05465
1386.75,0.05368
1363.6,0.05213
1340.46,0.04774
1317.31,0.04010
1294.17,0.03423
1271.02,0.02240
1247.88,0.09365
1224.73,0.13757
1201.59,0.09022
1178.45,0.11065
1155.3,0.13791
1132.16,0.09919
1109.01,0.08750
1085.87,0.07745
1062.72,0.08451
1039.58,0.07660
1016.43,0.07825
993.288,0.08625
970.144,0.07974
946.999,0.07616
923.855,0.07465
900.71,0.07089
877.565,0.07435
854.421,0.06556
831.276,0.07762
808.132,0.08460
784.987,0.07479
761.843,0.07885
738.698,0.07752
715.553,0.07516
692.409,0.07587
669.264,0.07457
646.12,0.07234
622.975,0.07029
599.83,0.06901