File: 01_Data/PC/FTIR/IS/PC_IS_S_230508_R2.dpt
7496.92,0.12454
7473.77,0.12710
7450.63,0.13213
7427.48,0.11052
7404.34,0.13036
7381.19,0.11052
7358.05,0.10551
7334.9,0.09587
7311.76,0.09037
7288.62,0.10228
7265.47,0.09291
7242.33,0.08913
7219.18,0.11044
7196.04,0.10145
7172.89,0.10377
7149.75,0.10183
7126.6,0.09536
7103.46,0.10379
7080.31,0.11091
7057.17,0.11499
7034.02,0.11494
7010.88,0.10724
6987.74,0.11860
6964.59,0.11545
6941.45,0.11350
6918.3,0.11901
6895.16,0.11023
6872.01,0.11533
6848.87,0.11527
6825.72,0.11357
6802.58,0.11288
6779.43,0.11238
6756.29,0.12283
6733.15,0.11607
6710,0.12390
6686.86,0.12109
6663.71,0.12451
6640.57,0.13116
6617.42,0.12756
6594.28,0.12773
6571.13,0.12873
6547.99,0.13217
6524.84,0.13012
6501.7,0.12661
6478.55,0.13068
6455.41,0.13289
6432.27,0.13003
6409.12,0.13014
6385.98,0.12402
6362.83,0.13078
6339.69,0.12983
6316.54,0.12310
6293.4,0.12087
6270.25,0.11318
6247.11,0.11233
6223.96,0.11025
6200.82,0.09803
6177.68,0.08717
6154.53,0.08306
6131.39,0.07556
6108.24,0.06846
6085.1,0.06038
6061.95,0.06001
6038.81,0.05826
6015.66,0.05570
5992.52,0.05734
5969.37,0.05787
5946.23,0.05930
5923.08,0.05650
5899.94,0.05538
5876.8,0.05842
5853.65,0.05978
5830.51,0.06527
5807.36,0.06489
5784.22,0.06202
5761.07,0.06462
5737.93,0.06513
5714.78,0.07742
5691.64,0.07750
5668.49,0.07262
5645.35,0.07316
5622.21,0.08590
5599.06,0.08831
5575.92,0.08702
5552.77,0.08636
5529.63,0.08581
5506.48,0.08493
5483.34,0.08462
5460.19,0.08409
5437.05,0.08985
5413.9,0.08695
5390.76,0.08633
5367.61,0.08985
5344.47,0.08796
5321.33,0.08815
5298.18,0.08183
5275.04,0.07155
5251.89,0.07015
5228.75,0.08653
5205.6,0.09230
5182.46,0.09216
5159.31,0.09254
5136.17,0.09735
5113.02,0.09884
5089.88,0.09788
5066.74,0.09577
5043.59,0.09719
5020.45,0.09610
4997.3,0.09343
4974.16,0.08992
4951.01,0.09004
4927.87,0.08843
4904.72,0.07969
4881.58,0.07669
4858.43,0.07196
4835.29,0.07155
4812.14,0.07355
4789,0.07222
4765.86,0.06751
4742.71,0.06375
4719.57,0.06122
4696.42,0.06160
4673.28,0.06126
4650.13,0.06245
4626.99,0.06158
4603.84,0.06182
4580.7,0.06206
4557.55,0.06180
4534.41,0.06150
4511.27,0.06233
4488.12,0.06178
4464.98,0.06248
4441.83,0.06242
4418.69,0.06171
4395.54,0.06269
4372.4,0.06281
4349.25,0.06219
4326.11,0.06168
4302.96,0.06290
4279.82,0.06242
4256.67,0.06232
4233.53,0.06260
4210.39,0.06339
4187.24,0.06299
4164.1,0.06247
4140.95,0.06235
4117.81,0.06243
4094.66,0.06280
4071.52,0.06180
4048.37,0.06275
4025.23,0.06343
4002.08,0.06381
3978.94,0.06325
3955.8,0.06308
3932.65,0.06253
3909.51,0.06345
3886.36,0.06397
3863.22,0.06270
3840.07,0.06366
3816.93,0.06300
3793.78,0.06319
3770.64,0.06316
3747.49,0.06165
3724.35,0.06330
3701.2,0.06320
3678.06,0.06244
3654.92,0.06388
3631.77,0.06186
3608.63,0.06280
3585.48,0.06181
3562.34,0.06305
3539.19,0.06294
3516.05,0.06272
3492.9,0.06248
3469.76,0.06183
3446.61,0.06166
3423.47,0.06227
3400.33,0.06167
3377.18,0.06181
3354.04,0.06267
3330.89,0.06236
3307.75,0.06147
3284.6,0.06147
3261.46,0.06233
3238.31,0.06210
3215.17,0.06206
3192.02,0.06218
3168.88,0.06238
3145.73,0.06192
3122.59,0.06156
3099.45,0.06156
3076.3,0.06219
3053.16,0.06130
3030.01,0.06255
3006.87,0.06139
2983.72,0.06046
2960.58,0.06464
2937.43,0.06431
2914.29,0.06489
2891.14,0.06340
2868,0.06444
2844.86,0.06431
2821.71,0.06377
2798.57,0.06333
2775.42,0.06349
2752.28,0.06340
2729.13,0.06367
2705.99,0.06299
2682.84,0.06338
2659.7,0.06338
2636.55,0.06334
2613.41,0.06296
2590.26,0.06256
2567.12,0.06307
2543.98,0.06323
2520.83,0.06269
2497.69,0.06304
2474.54,0.06291
2451.4,0.06260
2428.25,0.06276
2405.11,0.06301
2381.96,0.06319
2358.82,0.06355
2335.67,0.06291
2312.53,0.06317
2289.39,0.06250
2266.24,0.06241
2243.1,0.06213
2219.95,0.06246
2196.81,0.06204
2173.66,0.06240
2150.52,0.06204
2127.37,0.06173
2104.23,0.06113
2081.08,0.06131
2057.94,0.06131
2034.79,0.06093
2011.65,0.06076
1988.51,0.06063
1965.36,0.06031
1942.22,0.05993
1919.07,0.05922
1895.93,0.05893
1872.78,0.05796
1849.64,0.05691
1826.49,0.05379
1803.35,0.04705
1780.2,0.05882
1757.06,0.08026
1733.92,0.06847
1710.77,0.06486
1687.63,0.06313
1664.48,0.06132
1641.34,0.06073
1618.19,0.05943
1595.05,0.05933
1571.9,0.05827
1548.76,0.05460
1525.61,0.05083
1502.47,0.07179
1479.32,0.06391
1456.18,0.05986
1433.04,0.05733
1409.89,0.05497
1386.75,0.05379
1363.6,0.05292
1340.46,0.04818
1317.31,0.04091
1294.17,0.03497
1271.02,0.02225
1247.88,0.09225
1224.73,0.13695
1201.59,0.08928
1178.45,0.11101
1155.3,0.13882
1132.16,0.09974
1109.01,0.08819
1085.87,0.07772
1062.72,0.08423
1039.58,0.07730
1016.43,0.07837
993.288,0.08659
970.144,0.08035
946.999,0.07746
923.855,0.07528
900.71,0.07156
877.565,0.07522
854.421,0.06609
831.276,0.07772
808.132,0.08477
784.987,0.07529
761.843,0.07945
738.698,0.07774
715.553,0.07586
692.409,0.07603
669.264,0.07478
646.12,0.07363
622.975,0.07357
599.83,0.06822