File: 01_Data/PC/FTIR/IS/PC_IS_T_230508_R7.dpt
7496.92,0.02362
7473.77,0.02246
7450.63,0.02513
7427.48,0.03117
7404.34,0.02720
7381.19,0.02415
7358.05,0.01655
7334.9,0.02729
7311.76,0.02395
7288.62,0.02156
7265.47,0.02653
7242.33,0.03314
7219.18,0.01305
7196.04,0.01143
7172.89,0.02770
7149.75,0.02545
7126.6,0.02181
7103.46,0.03237
7080.31,0.01923
7057.17,0.03173
7034.02,0.02497
7010.88,0.02875
6987.74,0.02289
6964.59,0.02161
6941.45,0.03085
6918.3,0.03288
6895.16,0.02660
6872.01,0.03008
6848.87,0.02070
6825.72,0.02187
6802.58,0.02683
6779.43,0.02802
6756.29,0.02416
6733.15,0.02623
6710,0.02178
6686.86,0.02168
6663.71,0.02230
6640.57,0.02289
6617.42,0.02638
6594.28,0.02448
6571.13,0.02787
6547.99,0.02499
6524.84,0.02558
6501.7,0.02554
6478.55,0.02124
6455.41,0.02123
6432.27,0.02254
6409.12,0.02670
6385.98,0.02769
6362.83,0.02004
6339.69,0.01936
6316.54,0.02228
6293.4,0.02153
6270.25,0.02236
6247.11,0.02336
6223.96,0.02024
6200.82,0.02276
6177.68,0.02384
6154.53,0.02033
6131.39,0.02368
6108.24,0.02335
6085.1,0.02362
6061.95,0.02376
6038.81,0.02106
6015.66,0.02671
5992.52,0.02448
5969.37,0.02720
5946.23,0.02429
5923.08,0.02510
5899.94,0.02114
5876.8,0.02421
5853.65,0.02356
5830.51,0.02398
5807.36,0.02417
5784.22,0.02491
5761.07,0.02367
5737.93,0.02228
5714.78,0.02603
5691.64,0.02283
5668.49,0.02225
5645.35,0.02335
5622.21,0.02275
5599.06,0.02356
5575.92,0.02385
5552.77,0.02508
5529.63,0.02210
5506.48,0.02553
5483.34,0.02226
5460.19,0.02395
5437.05,0.02324
5413.9,0.02558
5390.76,0.02435
5367.61,0.02364
5344.47,0.02554
5321.33,0.02357
5298.18,0.02360
5275.04,0.02280
5251.89,0.02437
5228.75,0.02415
5205.6,0.02231
5182.46,0.02327
5159.31,0.02419
5136.17,0.02489
5113.02,0.02320
5089.88,0.02452
5066.74,0.02359
5043.59,0.02299
5020.45,0.02231
4997.3,0.02444
4974.16,0.02455
4951.01,0.02411
4927.87,0.02413
4904.72,0.02340
4881.58,0.02447
4858.43,0.02524
4835.29,0.02309
4812.14,0.02237
4789,0.02347
4765.86,0.02400
4742.71,0.02301
4719.57,0.02471
4696.42,0.02371
4673.28,0.02474
4650.13,0.02267
4626.99,0.02309
4603.84,0.02479
4580.7,0.02407
4557.55,0.02334
4534.41,0.02364
4511.27,0.02369
4488.12,0.02406
4464.98,0.02390
4441.83,0.02340
4418.69,0.02337
4395.54,0.02347
4372.4,0.02365
4349.25,0.02353
4326.11,0.02391
4302.96,0.02345
4279.82,0.02405
4256.67,0.02372
4233.53,0.02536
4210.39,0.02372
4187.24,0.02423
4164.1,0.02422
4140.95,0.02386
4117.81,0.02404
4094.66,0.02428
4071.52,0.02450
4048.37,0.02416
4025.23,0.02451
4002.08,0.02448
3978.94,0.02385
3955.8,0.02448
3932.65,0.02459
3909.51,0.02444
3886.36,0.02386
3863.22,0.02418
3840.07,0.02446
3816.93,0.02298
3793.78,0.02425
3770.64,0.02531
3747.49,0.02519
3724.35,0.02381
3701.2,0.02434
3678.06,0.02319
3654.92,0.02286
3631.77,0.02296
3608.63,0.02261
3585.48,0.02214
3562.34,0.02321
3539.19,0.02136
3516.05,0.02152
3492.9,0.02274
3469.76,0.02132
3446.61,0.02162
3423.47,0.02216
3400.33,0.02167
3377.18,0.02214
3354.04,0.02104
3330.89,0.02139
3307.75,0.02148
3284.6,0.02232
3261.46,0.02214
3238.31,0.02254
3215.17,0.02223
3192.02,0.02180
3168.88,0.02300
3145.73,0.02283
3122.59,0.02247
3099.45,0.02258
3076.3,0.02228
3053.16,0.02250
3030.01,0.02275
3006.87,0.02188
2983.72,0.02211
2960.58,0.02165
2937.43,0.02205
2914.29,0.02179
2891.14,0.02263
2868,0.02246
2844.86,0.02242
2821.71,0.02351
2798.57,0.02298
2775.42,0.02273
2752.28,0.02298
2729.13,0.02293
2705.99,0.02330
2682.84,0.02309
2659.7,0.02298
2636.55,0.02317
2613.41,0.02320
2590.26,0.02333
2567.12,0.02301
2543.98,0.02315
2520.83,0.02301
2497.69,0.02286
2474.54,0.02339
2451.4,0.02346
2428.25,0.02322
2405.11,0.02332
2381.96,0.02298
2358.82,0.02503
2335.67,0.02388
2312.53,0.02372
2289.39,0.02291
2266.24,0.02303
2243.1,0.02334
2219.95,0.02335
2196.81,0.02264
2173.66,0.02277
2150.52,0.02323
2127.37,0.02304
2104.23,0.02275
2081.08,0.02292
2057.94,0.02297
2034.79,0.02256
2011.65,0.02250
1988.51,0.02265
1965.36,0.02267
1942.22,0.02262
1919.07,0.02284
1895.93,0.02256
1872.78,0.02279
1849.64,0.02278
1826.49,0.02232
1803.35,0.02206
1780.2,0.02122
1757.06,0.01954
1733.92,0.02115
1710.77,0.02225
1687.63,0.02120
1664.48,0.01981
1641.34,0.02048
1618.19,0.02118
1595.05,0.02090
1571.9,0.01999
1548.76,0.01992
1525.61,0.02027
1502.47,0.02047
1479.32,0.02057
1456.18,0.02050
1433.04,0.02037
1409.89,0.02008
1386.75,0.01978
1363.6,0.01956
1340.46,0.01946
1317.31,0.01866
1294.17,0.01922
1271.02,0.02083
1247.88,0.02194
1224.73,0.02080
1201.59,0.02053
1178.45,0.01948
1155.3,0.01981
1132.16,0.01943
1109.01,0.02013
1085.87,0.01941
1062.72,0.02160
1039.58,0.02099
1016.43,0.02091
993.288,0.02239
970.144,0.02192
946.999,0.02141
923.855,0.02115
900.71,0.02078
877.565,0.02038
854.421,0.02031
831.276,0.02019
808.132,0.02001
784.987,0.01945
761.843,0.01942
738.698,0.02003
715.553,0.01871
692.409,0.01931
669.264,0.01983
646.12,0.01803
622.975,0.01713
599.83,0.01434