File: 01_Data/PC/FTIR/IS/PC_IS_T_230508_R6.dpt
7496.92,0.01978
7473.77,0.02854
7450.63,0.02974
7427.48,0.02050
7404.34,0.02232
7381.19,0.01798
7358.05,0.03234
7334.9,0.03045
7311.76,0.02205
7288.62,0.02236
7265.47,0.03258
7242.33,0.02751
7219.18,0.02771
7196.04,0.02755
7172.89,0.02563
7149.75,0.02710
7126.6,0.02913
7103.46,0.02905
7080.31,0.02516
7057.17,0.02670
7034.02,0.02552
7010.88,0.03077
6987.74,0.02202
6964.59,0.02827
6941.45,0.01700
6918.3,0.02605
6895.16,0.02384
6872.01,0.02077
6848.87,0.02315
6825.72,0.02229
6802.58,0.02490
6779.43,0.02702
6756.29,0.02398
6733.15,0.02948
6710,0.02089
6686.86,0.02423
6663.71,0.02843
6640.57,0.02414
6617.42,0.02592
6594.28,0.02277
6571.13,0.01901
6547.99,0.01890
6524.84,0.02392
6501.7,0.03021
6478.55,0.02326
6455.41,0.02330
6432.27,0.02447
6409.12,0.02409
6385.98,0.02449
6362.83,0.02179
6339.69,0.02192
6316.54,0.02350
6293.4,0.02457
6270.25,0.02311
6247.11,0.02557
6223.96,0.02336
6200.82,0.02416
6177.68,0.02552
6154.53,0.02347
6131.39,0.02365
6108.24,0.02522
6085.1,0.02876
6061.95,0.02117
6038.81,0.02195
6015.66,0.02426
5992.52,0.02498
5969.37,0.02248
5946.23,0.02382
5923.08,0.02372
5899.94,0.02531
5876.8,0.02536
5853.65,0.02431
5830.51,0.02098
5807.36,0.02488
5784.22,0.02229
5761.07,0.02284
5737.93,0.02210
5714.78,0.02225
5691.64,0.02554
5668.49,0.02575
5645.35,0.02558
5622.21,0.02453
5599.06,0.02184
5575.92,0.02387
5552.77,0.02320
5529.63,0.02326
5506.48,0.02235
5483.34,0.02465
5460.19,0.02220
5437.05,0.02201
5413.9,0.02504
5390.76,0.02281
5367.61,0.02437
5344.47,0.02285
5321.33,0.02644
5298.18,0.02403
5275.04,0.02258
5251.89,0.02427
5228.75,0.02334
5205.6,0.02384
5182.46,0.02336
5159.31,0.02422
5136.17,0.02344
5113.02,0.02454
5089.88,0.02423
5066.74,0.02385
5043.59,0.02401
5020.45,0.02356
4997.3,0.02353
4974.16,0.02431
4951.01,0.02281
4927.87,0.02395
4904.72,0.02327
4881.58,0.02399
4858.43,0.02404
4835.29,0.02392
4812.14,0.02296
4789,0.02397
4765.86,0.02334
4742.71,0.02434
4719.57,0.02354
4696.42,0.02477
4673.28,0.02450
4650.13,0.02425
4626.99,0.02416
4603.84,0.02389
4580.7,0.02457
4557.55,0.02401
4534.41,0.02445
4511.27,0.02386
4488.12,0.02347
4464.98,0.02419
4441.83,0.02416
4418.69,0.02397
4395.54,0.02395
4372.4,0.02372
4349.25,0.02503
4326.11,0.02484
4302.96,0.02491
4279.82,0.02458
4256.67,0.02467
4233.53,0.02502
4210.39,0.02412
4187.24,0.02485
4164.1,0.02429
4140.95,0.02491
4117.81,0.02485
4094.66,0.02448
4071.52,0.02507
4048.37,0.02437
4025.23,0.02404
4002.08,0.02433
3978.94,0.02455
3955.8,0.02417
3932.65,0.02463
3909.51,0.02460
3886.36,0.02492
3863.22,0.02270
3840.07,0.02422
3816.93,0.02395
3793.78,0.02476
3770.64,0.02426
3747.49,0.02271
3724.35,0.02418
3701.2,0.02434
3678.06,0.02418
3654.92,0.02421
3631.77,0.02292
3608.63,0.02438
3585.48,0.02219
3562.34,0.02221
3539.19,0.02271
3516.05,0.02262
3492.9,0.02209
3469.76,0.02181
3446.61,0.02188
3423.47,0.02170
3400.33,0.02197
3377.18,0.02250
3354.04,0.02251
3330.89,0.02143
3307.75,0.02233
3284.6,0.02181
3261.46,0.02299
3238.31,0.02220
3215.17,0.02304
3192.02,0.02269
3168.88,0.02324
3145.73,0.02319
3122.59,0.02272
3099.45,0.02253
3076.3,0.02295
3053.16,0.02300
3030.01,0.02285
3006.87,0.02274
2983.72,0.02209
2960.58,0.02132
2937.43,0.02225
2914.29,0.02258
2891.14,0.02252
2868,0.02276
2844.86,0.02351
2821.71,0.02372
2798.57,0.02384
2775.42,0.02353
2752.28,0.02351
2729.13,0.02339
2705.99,0.02355
2682.84,0.02352
2659.7,0.02386
2636.55,0.02358
2613.41,0.02372
2590.26,0.02380
2567.12,0.02395
2543.98,0.02353
2520.83,0.02358
2497.69,0.02408
2474.54,0.02364
2451.4,0.02373
2428.25,0.02370
2405.11,0.02366
2381.96,0.02403
2358.82,0.02325
2335.67,0.02301
2312.53,0.02318
2289.39,0.02313
2266.24,0.02382
2243.1,0.02379
2219.95,0.02343
2196.81,0.02367
2173.66,0.02335
2150.52,0.02298
2127.37,0.02338
2104.23,0.02352
2081.08,0.02349
2057.94,0.02354
2034.79,0.02291
2011.65,0.02299
1988.51,0.02347
1965.36,0.02323
1942.22,0.02316
1919.07,0.02310
1895.93,0.02317
1872.78,0.02327
1849.64,0.02271
1826.49,0.02295
1803.35,0.02203
1780.2,0.02167
1757.06,0.02038
1733.92,0.02119
1710.77,0.02246
1687.63,0.02097
1664.48,0.02092
1641.34,0.02089
1618.19,0.02124
1595.05,0.02103
1571.9,0.02151
1548.76,0.02082
1525.61,0.02112
1502.47,0.02066
1479.32,0.02078
1456.18,0.02031
1433.04,0.02070
1409.89,0.02007
1386.75,0.02006
1363.6,0.02017
1340.46,0.01975
1317.31,0.01878
1294.17,0.01952
1271.02,0.02128
1247.88,0.02217
1224.73,0.02124
1201.59,0.02093
1178.45,0.02007
1155.3,0.01967
1132.16,0.01974
1109.01,0.02064
1085.87,0.01986
1062.72,0.02127
1039.58,0.02164
1016.43,0.02120
993.288,0.02297
970.144,0.02199
946.999,0.02176
923.855,0.02110
900.71,0.02143
877.565,0.02083
854.421,0.02066
831.276,0.02081
808.132,0.01911
784.987,0.02033
761.843,0.01952
738.698,0.02012
715.553,0.01905
692.409,0.02026
669.264,0.01768
646.12,0.01839
622.975,0.01611
599.83,0.01574