File: 01_Data/PC/FTIR/IS/PC_IS_T_230508_R2.dpt
7496.92,0.01656
7473.77,0.02243
7450.63,0.02644
7427.48,0.03024
7404.34,0.03183
7381.19,0.02579
7358.05,0.03408
7334.9,0.01760
7311.76,0.02941
7288.62,0.01831
7265.47,0.03059
7242.33,0.02932
7219.18,0.02034
7196.04,0.03361
7172.89,0.02154
7149.75,0.01925
7126.6,0.02403
7103.46,0.02454
7080.31,0.03090
7057.17,0.02374
7034.02,0.02563
7010.88,0.02600
6987.74,0.01936
6964.59,0.02751
6941.45,0.02566
6918.3,0.02996
6895.16,0.02383
6872.01,0.02309
6848.87,0.02049
6825.72,0.02569
6802.58,0.02551
6779.43,0.02409
6756.29,0.02470
6733.15,0.02477
6710,0.02676
6686.86,0.01983
6663.71,0.02501
6640.57,0.02607
6617.42,0.02451
6594.28,0.02368
6571.13,0.02470
6547.99,0.02404
6524.84,0.02910
6501.7,0.02462
6478.55,0.02239
6455.41,0.02952
6432.27,0.02646
6409.12,0.02188
6385.98,0.01902
6362.83,0.02063
6339.69,0.02430
6316.54,0.02301
6293.4,0.02374
6270.25,0.02673
6247.11,0.02134
6223.96,0.02263
6200.82,0.01956
6177.68,0.02517
6154.53,0.02289
6131.39,0.02521
6108.24,0.02319
6085.1,0.02389
6061.95,0.02526
6038.81,0.02606
6015.66,0.02345
5992.52,0.02563
5969.37,0.02049
5946.23,0.02557
5923.08,0.02423
5899.94,0.02023
5876.8,0.02332
5853.65,0.02258
5830.51,0.01998
5807.36,0.02362
5784.22,0.02233
5761.07,0.02319
5737.93,0.02248
5714.78,0.02308
5691.64,0.02499
5668.49,0.02227
5645.35,0.02503
5622.21,0.02169
5599.06,0.02411
5575.92,0.02489
5552.77,0.02272
5529.63,0.02269
5506.48,0.02297
5483.34,0.02293
5460.19,0.02424
5437.05,0.02183
5413.9,0.02325
5390.76,0.02165
5367.61,0.02173
5344.47,0.02128
5321.33,0.02187
5298.18,0.02357
5275.04,0.02288
5251.89,0.02316
5228.75,0.02250
5205.6,0.02357
5182.46,0.02218
5159.31,0.02429
5136.17,0.02338
5113.02,0.02407
5089.88,0.02394
5066.74,0.02253
5043.59,0.02413
5020.45,0.02391
4997.3,0.02306
4974.16,0.02494
4951.01,0.02458
4927.87,0.02426
4904.72,0.02386
4881.58,0.02433
4858.43,0.02348
4835.29,0.02314
4812.14,0.02280
4789,0.02260
4765.86,0.02414
4742.71,0.02338
4719.57,0.02393
4696.42,0.02319
4673.28,0.02503
4650.13,0.02356
4626.99,0.02307
4603.84,0.02247
4580.7,0.02397
4557.55,0.02294
4534.41,0.02343
4511.27,0.02344
4488.12,0.02314
4464.98,0.02302
4441.83,0.02248
4418.69,0.02300
4395.54,0.02330
4372.4,0.02344
4349.25,0.02404
4326.11,0.02388
4302.96,0.02357
4279.82,0.02296
4256.67,0.02346
4233.53,0.02328
4210.39,0.02419
4187.24,0.02358
4164.1,0.02424
4140.95,0.02335
4117.81,0.02399
4094.66,0.02406
4071.52,0.02426
4048.37,0.02357
4025.23,0.02400
4002.08,0.02310
3978.94,0.02343
3955.8,0.02414
3932.65,0.02389
3909.51,0.02443
3886.36,0.02312
3863.22,0.02542
3840.07,0.02359
3816.93,0.02446
3793.78,0.02351
3770.64,0.02356
3747.49,0.02417
3724.35,0.02442
3701.2,0.02414
3678.06,0.02471
3654.92,0.02344
3631.77,0.02284
3608.63,0.02214
3585.48,0.02165
3562.34,0.02202
3539.19,0.02189
3516.05,0.02206
3492.9,0.02156
3469.76,0.02183
3446.61,0.02192
3423.47,0.02152
3400.33,0.02127
3377.18,0.02153
3354.04,0.02122
3330.89,0.02192
3307.75,0.02085
3284.6,0.02159
3261.46,0.02162
3238.31,0.02131
3215.17,0.02173
3192.02,0.02159
3168.88,0.02217
3145.73,0.02210
3122.59,0.02265
3099.45,0.02212
3076.3,0.02206
3053.16,0.02181
3030.01,0.02207
3006.87,0.02159
2983.72,0.02149
2960.58,0.02124
2937.43,0.02029
2914.29,0.02237
2891.14,0.02168
2868,0.02167
2844.86,0.02240
2821.71,0.02247
2798.57,0.02225
2775.42,0.02304
2752.28,0.02283
2729.13,0.02259
2705.99,0.02291
2682.84,0.02263
2659.7,0.02300
2636.55,0.02254
2613.41,0.02226
2590.26,0.02279
2567.12,0.02256
2543.98,0.02307
2520.83,0.02312
2497.69,0.02265
2474.54,0.02314
2451.4,0.02284
2428.25,0.02289
2405.11,0.02255
2381.96,0.02305
2358.82,0.02277
2335.67,0.02366
2312.53,0.02275
2289.39,0.02285
2266.24,0.02267
2243.1,0.02234
2219.95,0.02290
2196.81,0.02273
2173.66,0.02274
2150.52,0.02234
2127.37,0.02236
2104.23,0.02256
2081.08,0.02262
2057.94,0.02250
2034.79,0.02274
2011.65,0.02248
1988.51,0.02243
1965.36,0.02201
1942.22,0.02237
1919.07,0.02226
1895.93,0.02203
1872.78,0.02230
1849.64,0.02201
1826.49,0.02179
1803.35,0.02164
1780.2,0.02099
1757.06,0.01879
1733.92,0.02047
1710.77,0.02134
1687.63,0.02037
1664.48,0.01986
1641.34,0.01997
1618.19,0.01988
1595.05,0.02031
1571.9,0.01997
1548.76,0.01996
1525.61,0.01973
1502.47,0.02025
1479.32,0.01974
1456.18,0.01938
1433.04,0.02008
1409.89,0.01908
1386.75,0.01934
1363.6,0.01964
1340.46,0.01876
1317.31,0.01838
1294.17,0.01896
1271.02,0.02028
1247.88,0.02154
1224.73,0.02024
1201.59,0.01951
1178.45,0.01951
1155.3,0.01855
1132.16,0.01874
1109.01,0.01983
1085.87,0.01932
1062.72,0.02167
1039.58,0.02096
1016.43,0.02055
993.288,0.02185
970.144,0.02161
946.999,0.02091
923.855,0.02091
900.71,0.02060
877.565,0.02079
854.421,0.01973
831.276,0.02020
808.132,0.02042
784.987,0.01968
761.843,0.01854
738.698,0.01857
715.553,0.01957
692.409,0.01864
669.264,0.01759
646.12,0.01751
622.975,0.01740
599.83,0.01913