File: 01_Data/PC/FTIR/IS/PC_IS_S_230508_R4.dpt
7496.92,0.13100
7473.77,0.13516
7450.63,0.12082
7427.48,0.13040
7404.34,0.11202
7381.19,0.12226
7358.05,0.11157
7334.9,0.10997
7311.76,0.10283
7288.62,0.10056
7265.47,0.09861
7242.33,0.08907
7219.18,0.10750
7196.04,0.09391
7172.89,0.09199
7149.75,0.09496
7126.6,0.10094
7103.46,0.10823
7080.31,0.10697
7057.17,0.11135
7034.02,0.10647
7010.88,0.11101
6987.74,0.10953
6964.59,0.11435
6941.45,0.10866
6918.3,0.12497
6895.16,0.11777
6872.01,0.11301
6848.87,0.11593
6825.72,0.12372
6802.58,0.11672
6779.43,0.11502
6756.29,0.12492
6733.15,0.12430
6710,0.12263
6686.86,0.12487
6663.71,0.12420
6640.57,0.12443
6617.42,0.13149
6594.28,0.13102
6571.13,0.13041
6547.99,0.12934
6524.84,0.13426
6501.7,0.13007
6478.55,0.13255
6455.41,0.12622
6432.27,0.12823
6409.12,0.12964
6385.98,0.13102
6362.83,0.12428
6339.69,0.12768
6316.54,0.12439
6293.4,0.12381
6270.25,0.12034
6247.11,0.11555
6223.96,0.10969
6200.82,0.10156
6177.68,0.09030
6154.53,0.08412
6131.39,0.07710
6108.24,0.07121
6085.1,0.06017
6061.95,0.05861
6038.81,0.05489
6015.66,0.05858
5992.52,0.05619
5969.37,0.05925
5946.23,0.05621
5923.08,0.05547
5899.94,0.05826
5876.8,0.06142
5853.65,0.05881
5830.51,0.06485
5807.36,0.06486
5784.22,0.06372
5761.07,0.06156
5737.93,0.06442
5714.78,0.07669
5691.64,0.07905
5668.49,0.07298
5645.35,0.07303
5622.21,0.08785
5599.06,0.08922
5575.92,0.08897
5552.77,0.08623
5529.63,0.08619
5506.48,0.08765
5483.34,0.08436
5460.19,0.08329
5437.05,0.09031
5413.9,0.08833
5390.76,0.08789
5367.61,0.09027
5344.47,0.08612
5321.33,0.08639
5298.18,0.08424
5275.04,0.07172
5251.89,0.07229
5228.75,0.08516
5205.6,0.09015
5182.46,0.09288
5159.31,0.09438
5136.17,0.09514
5113.02,0.09801
5089.88,0.09706
5066.74,0.09678
5043.59,0.09820
5020.45,0.09533
4997.3,0.09354
4974.16,0.09121
4951.01,0.09044
4927.87,0.08891
4904.72,0.07994
4881.58,0.07680
4858.43,0.07212
4835.29,0.07191
4812.14,0.07370
4789,0.07266
4765.86,0.06850
4742.71,0.06428
4719.57,0.06185
4696.42,0.06207
4673.28,0.06132
4650.13,0.06210
4626.99,0.06279
4603.84,0.06193
4580.7,0.06116
4557.55,0.06261
4534.41,0.06247
4511.27,0.06401
4488.12,0.06212
4464.98,0.06207
4441.83,0.06186
4418.69,0.06205
4395.54,0.06193
4372.4,0.06336
4349.25,0.06206
4326.11,0.06226
4302.96,0.06209
4279.82,0.06290
4256.67,0.06226
4233.53,0.06197
4210.39,0.06274
4187.24,0.06310
4164.1,0.06295
4140.95,0.06236
4117.81,0.06311
4094.66,0.06323
4071.52,0.06291
4048.37,0.06280
4025.23,0.06266
4002.08,0.06270
3978.94,0.06257
3955.8,0.06309
3932.65,0.06266
3909.51,0.06282
3886.36,0.06355
3863.22,0.06149
3840.07,0.06213
3816.93,0.06437
3793.78,0.06318
3770.64,0.06391
3747.49,0.06284
3724.35,0.06240
3701.2,0.06257
3678.06,0.06237
3654.92,0.06315
3631.77,0.06237
3608.63,0.06269
3585.48,0.06142
3562.34,0.06258
3539.19,0.06246
3516.05,0.06217
3492.9,0.06192
3469.76,0.06145
3446.61,0.06264
3423.47,0.06183
3400.33,0.06220
3377.18,0.06233
3354.04,0.06236
3330.89,0.06120
3307.75,0.06225
3284.6,0.06195
3261.46,0.06180
3238.31,0.06220
3215.17,0.06181
3192.02,0.06112
3168.88,0.06254
3145.73,0.06275
3122.59,0.06204
3099.45,0.06199
3076.3,0.06190
3053.16,0.06126
3030.01,0.06199
3006.87,0.06146
2983.72,0.06034
2960.58,0.06438
2937.43,0.06391
2914.29,0.06410
2891.14,0.06318
2868,0.06456
2844.86,0.06391
2821.71,0.06315
2798.57,0.06324
2775.42,0.06319
2752.28,0.06336
2729.13,0.06260
2705.99,0.06293
2682.84,0.06312
2659.7,0.06298
2636.55,0.06311
2613.41,0.06320
2590.26,0.06316
2567.12,0.06290
2543.98,0.06278
2520.83,0.06257
2497.69,0.06261
2474.54,0.06249
2451.4,0.06255
2428.25,0.06276
2405.11,0.06261
2381.96,0.06308
2358.82,0.06237
2335.67,0.06321
2312.53,0.06262
2289.39,0.06267
2266.24,0.06222
2243.1,0.06220
2219.95,0.06243
2196.81,0.06205
2173.66,0.06174
2150.52,0.06182
2127.37,0.06171
2104.23,0.06145
2081.08,0.06155
2057.94,0.06094
2034.79,0.06104
2011.65,0.06076
1988.51,0.06057
1965.36,0.06033
1942.22,0.05979
1919.07,0.05930
1895.93,0.05890
1872.78,0.05792
1849.64,0.05669
1826.49,0.05412
1803.35,0.04744
1780.2,0.05966
1757.06,0.08018
1733.92,0.06834
1710.77,0.06448
1687.63,0.06211
1664.48,0.06103
1641.34,0.06010
1618.19,0.05804
1595.05,0.05943
1571.9,0.05768
1548.76,0.05476
1525.61,0.05024
1502.47,0.07278
1479.32,0.06319
1456.18,0.05968
1433.04,0.05726
1409.89,0.05495
1386.75,0.05375
1363.6,0.05246
1340.46,0.04751
1317.31,0.04016
1294.17,0.03453
1271.02,0.02194
1247.88,0.09420
1224.73,0.13759
1201.59,0.08973
1178.45,0.11179
1155.3,0.13877
1132.16,0.10012
1109.01,0.08846
1085.87,0.07844
1062.72,0.08554
1039.58,0.07695
1016.43,0.07895
993.288,0.08689
970.144,0.08027
946.999,0.07775
923.855,0.07432
900.71,0.07055
877.565,0.07425
854.421,0.06601
831.276,0.07850
808.132,0.08444
784.987,0.07485
761.843,0.07963
738.698,0.07736
715.553,0.07643
692.409,0.07566
669.264,0.07544
646.12,0.07184
622.975,0.07081
599.83,0.06841