File: 01_Data/PC/FTIR/IS/PC_IS_T_230508_R4.dpt
7496.92,0.02120
7473.77,0.02507
7450.63,0.02061
7427.48,0.01246
7404.34,0.03313
7381.19,0.02714
7358.05,0.02878
7334.9,0.02622
7311.76,0.01388
7288.62,0.02803
7265.47,0.02724
7242.33,0.02619
7219.18,0.02222
7196.04,0.01848
7172.89,0.03277
7149.75,0.02319
7126.6,0.02024
7103.46,0.02136
7080.31,0.01655
7057.17,0.03519
7034.02,0.03135
7010.88,0.02531
6987.74,0.01879
6964.59,0.02720
6941.45,0.02366
6918.3,0.02932
6895.16,0.02395
6872.01,0.03117
6848.87,0.02958
6825.72,0.02044
6802.58,0.02176
6779.43,0.01977
6756.29,0.02884
6733.15,0.02802
6710,0.02074
6686.86,0.02105
6663.71,0.02294
6640.57,0.02620
6617.42,0.02669
6594.28,0.02012
6571.13,0.02503
6547.99,0.02310
6524.84,0.02527
6501.7,0.02733
6478.55,0.02167
6455.41,0.01800
6432.27,0.02553
6409.12,0.02238
6385.98,0.02287
6362.83,0.02314
6339.69,0.02598
6316.54,0.02190
6293.4,0.02139
6270.25,0.01920
6247.11,0.02436
6223.96,0.02465
6200.82,0.02390
6177.68,0.02605
6154.53,0.02461
6131.39,0.02570
6108.24,0.02591
6085.1,0.02026
6061.95,0.02155
6038.81,0.02271
6015.66,0.02403
5992.52,0.01906
5969.37,0.02313
5946.23,0.02064
5923.08,0.02482
5899.94,0.02359
5876.8,0.02296
5853.65,0.02407
5830.51,0.02465
5807.36,0.02408
5784.22,0.01935
5761.07,0.02297
5737.93,0.02308
5714.78,0.02392
5691.64,0.02473
5668.49,0.02353
5645.35,0.02591
5622.21,0.02265
5599.06,0.02332
5575.92,0.02357
5552.77,0.02493
5529.63,0.02416
5506.48,0.02414
5483.34,0.02384
5460.19,0.02441
5437.05,0.02075
5413.9,0.02419
5390.76,0.02337
5367.61,0.02410
5344.47,0.02195
5321.33,0.02387
5298.18,0.02403
5275.04,0.02299
5251.89,0.02504
5228.75,0.02337
5205.6,0.02375
5182.46,0.02431
5159.31,0.02525
5136.17,0.02375
5113.02,0.02454
5089.88,0.02270
5066.74,0.02372
5043.59,0.02160
5020.45,0.02365
4997.3,0.02343
4974.16,0.02388
4951.01,0.02374
4927.87,0.02250
4904.72,0.02281
4881.58,0.02300
4858.43,0.02369
4835.29,0.02352
4812.14,0.02373
4789,0.02313
4765.86,0.02377
4742.71,0.02352
4719.57,0.02436
4696.42,0.02444
4673.28,0.02380
4650.13,0.02366
4626.99,0.02296
4603.84,0.02324
4580.7,0.02356
4557.55,0.02362
4534.41,0.02448
4511.27,0.02352
4488.12,0.02425
4464.98,0.02366
4441.83,0.02438
4418.69,0.02403
4395.54,0.02496
4372.4,0.02471
4349.25,0.02357
4326.11,0.02318
4302.96,0.02330
4279.82,0.02396
4256.67,0.02378
4233.53,0.02438
4210.39,0.02411
4187.24,0.02498
4164.1,0.02410
4140.95,0.02480
4117.81,0.02465
4094.66,0.02355
4071.52,0.02455
4048.37,0.02484
4025.23,0.02433
4002.08,0.02413
3978.94,0.02434
3955.8,0.02355
3932.65,0.02437
3909.51,0.02474
3886.36,0.02482
3863.22,0.02423
3840.07,0.02534
3816.93,0.02360
3793.78,0.02426
3770.64,0.02462
3747.49,0.02358
3724.35,0.02518
3701.2,0.02284
3678.06,0.02390
3654.92,0.02261
3631.77,0.02263
3608.63,0.02287
3585.48,0.02178
3562.34,0.02332
3539.19,0.02170
3516.05,0.02218
3492.9,0.02259
3469.76,0.02229
3446.61,0.02213
3423.47,0.02100
3400.33,0.02110
3377.18,0.02185
3354.04,0.02156
3330.89,0.02132
3307.75,0.02205
3284.6,0.02244
3261.46,0.02212
3238.31,0.02229
3215.17,0.02196
3192.02,0.02272
3168.88,0.02317
3145.73,0.02325
3122.59,0.02226
3099.45,0.02266
3076.3,0.02217
3053.16,0.02263
3030.01,0.02260
3006.87,0.02230
2983.72,0.02239
2960.58,0.02167
2937.43,0.02195
2914.29,0.02207
2891.14,0.02239
2868,0.02248
2844.86,0.02360
2821.71,0.02339
2798.57,0.02350
2775.42,0.02355
2752.28,0.02317
2729.13,0.02336
2705.99,0.02349
2682.84,0.02352
2659.7,0.02319
2636.55,0.02309
2613.41,0.02332
2590.26,0.02359
2567.12,0.02325
2543.98,0.02333
2520.83,0.02304
2497.69,0.02312
2474.54,0.02325
2451.4,0.02337
2428.25,0.02350
2405.11,0.02342
2381.96,0.02335
2358.82,0.02366
2335.67,0.02472
2312.53,0.02329
2289.39,0.02326
2266.24,0.02329
2243.1,0.02281
2219.95,0.02311
2196.81,0.02309
2173.66,0.02332
2150.52,0.02344
2127.37,0.02315
2104.23,0.02305
2081.08,0.02283
2057.94,0.02317
2034.79,0.02275
2011.65,0.02306
1988.51,0.02343
1965.36,0.02275
1942.22,0.02292
1919.07,0.02283
1895.93,0.02254
1872.78,0.02322
1849.64,0.02261
1826.49,0.02166
1803.35,0.02190
1780.2,0.02131
1757.06,0.01945
1733.92,0.02156
1710.77,0.02265
1687.63,0.02103
1664.48,0.02042
1641.34,0.02031
1618.19,0.02058
1595.05,0.02068
1571.9,0.02064
1548.76,0.01997
1525.61,0.02102
1502.47,0.02094
1479.32,0.02071
1456.18,0.02011
1433.04,0.02027
1409.89,0.02024
1386.75,0.01993
1363.6,0.01978
1340.46,0.01915
1317.31,0.01861
1294.17,0.01929
1271.02,0.02114
1247.88,0.02204
1224.73,0.02103
1201.59,0.02021
1178.45,0.01961
1155.3,0.01872
1132.16,0.01946
1109.01,0.02025
1085.87,0.01958
1062.72,0.02193
1039.58,0.02158
1016.43,0.02086
993.288,0.02296
970.144,0.02191
946.999,0.02139
923.855,0.02081
900.71,0.02115
877.565,0.02053
854.421,0.02041
831.276,0.02038
808.132,0.02005
784.987,0.02041
761.843,0.02026
738.698,0.01974
715.553,0.01895
692.409,0.01881
669.264,0.01889
646.12,0.01839
622.975,0.01860
599.83,0.01860