File: 01_Data/PC/FTIR/IS/PC_IS_S_230508_R3.dpt
7496.92,0.12930
7473.77,0.12869
7450.63,0.12361
7427.48,0.11961
7404.34,0.10903
7381.19,0.10543
7358.05,0.10778
7334.9,0.11409
7311.76,0.11162
7288.62,0.08810
7265.47,0.10004
7242.33,0.08383
7219.18,0.10185
7196.04,0.09987
7172.89,0.09717
7149.75,0.09330
7126.6,0.10160
7103.46,0.09561
7080.31,0.10653
7057.17,0.11603
7034.02,0.10559
7010.88,0.10467
6987.74,0.11106
6964.59,0.11538
6941.45,0.11597
6918.3,0.11394
6895.16,0.11214
6872.01,0.11682
6848.87,0.10984
6825.72,0.10942
6802.58,0.12214
6779.43,0.12086
6756.29,0.11900
6733.15,0.12415
6710,0.12128
6686.86,0.12383
6663.71,0.12742
6640.57,0.12564
6617.42,0.12149
6594.28,0.12906
6571.13,0.13241
6547.99,0.13400
6524.84,0.12765
6501.7,0.13032
6478.55,0.12902
6455.41,0.13385
6432.27,0.12508
6409.12,0.13280
6385.98,0.12957
6362.83,0.12873
6339.69,0.11928
6316.54,0.12204
6293.4,0.12410
6270.25,0.11921
6247.11,0.11253
6223.96,0.11094
6200.82,0.10430
6177.68,0.08975
6154.53,0.08700
6131.39,0.07520
6108.24,0.06890
6085.1,0.06208
6061.95,0.05708
6038.81,0.05849
6015.66,0.06035
5992.52,0.05757
5969.37,0.05537
5946.23,0.05708
5923.08,0.05720
5899.94,0.05525
5876.8,0.05845
5853.65,0.06002
5830.51,0.06292
5807.36,0.06148
5784.22,0.06583
5761.07,0.06078
5737.93,0.06750
5714.78,0.07572
5691.64,0.07800
5668.49,0.07071
5645.35,0.07340
5622.21,0.08478
5599.06,0.08637
5575.92,0.08780
5552.77,0.08656
5529.63,0.08579
5506.48,0.08729
5483.34,0.08185
5460.19,0.08457
5437.05,0.08709
5413.9,0.09180
5390.76,0.08840
5367.61,0.09057
5344.47,0.08725
5321.33,0.08791
5298.18,0.08297
5275.04,0.07283
5251.89,0.07386
5228.75,0.08639
5205.6,0.09171
5182.46,0.09147
5159.31,0.09324
5136.17,0.09742
5113.02,0.09775
5089.88,0.09849
5066.74,0.09596
5043.59,0.09864
5020.45,0.09666
4997.3,0.09414
4974.16,0.09021
4951.01,0.09018
4927.87,0.08806
4904.72,0.08053
4881.58,0.07636
4858.43,0.07243
4835.29,0.07143
4812.14,0.07310
4789,0.07275
4765.86,0.06923
4742.71,0.06468
4719.57,0.06277
4696.42,0.06243
4673.28,0.06198
4650.13,0.06183
4626.99,0.06134
4603.84,0.06154
4580.7,0.06111
4557.55,0.06286
4534.41,0.06327
4511.27,0.06236
4488.12,0.06114
4464.98,0.06266
4441.83,0.06183
4418.69,0.06221
4395.54,0.06253
4372.4,0.06242
4349.25,0.06269
4326.11,0.06224
4302.96,0.06195
4279.82,0.06200
4256.67,0.06324
4233.53,0.06241
4210.39,0.06239
4187.24,0.06214
4164.1,0.06300
4140.95,0.06244
4117.81,0.06277
4094.66,0.06305
4071.52,0.06257
4048.37,0.06272
4025.23,0.06343
4002.08,0.06340
3978.94,0.06355
3955.8,0.06358
3932.65,0.06276
3909.51,0.06362
3886.36,0.06432
3863.22,0.06313
3840.07,0.06468
3816.93,0.06366
3793.78,0.06311
3770.64,0.06315
3747.49,0.06238
3724.35,0.06247
3701.2,0.06286
3678.06,0.06464
3654.92,0.06296
3631.77,0.06255
3608.63,0.06186
3585.48,0.06306
3562.34,0.06180
3539.19,0.06236
3516.05,0.06253
3492.9,0.06249
3469.76,0.06171
3446.61,0.06173
3423.47,0.06225
3400.33,0.06209
3377.18,0.06229
3354.04,0.06175
3330.89,0.06268
3307.75,0.06125
3284.6,0.06216
3261.46,0.06235
3238.31,0.06179
3215.17,0.06179
3192.02,0.06227
3168.88,0.06253
3145.73,0.06229
3122.59,0.06193
3099.45,0.06259
3076.3,0.06206
3053.16,0.06158
3030.01,0.06285
3006.87,0.06124
2983.72,0.06026
2960.58,0.06461
2937.43,0.06369
2914.29,0.06471
2891.14,0.06414
2868,0.06429
2844.86,0.06387
2821.71,0.06341
2798.57,0.06306
2775.42,0.06356
2752.28,0.06340
2729.13,0.06349
2705.99,0.06308
2682.84,0.06289
2659.7,0.06282
2636.55,0.06311
2613.41,0.06321
2590.26,0.06311
2567.12,0.06338
2543.98,0.06290
2520.83,0.06273
2497.69,0.06300
2474.54,0.06288
2451.4,0.06320
2428.25,0.06254
2405.11,0.06234
2381.96,0.06266
2358.82,0.06201
2335.67,0.06252
2312.53,0.06251
2289.39,0.06254
2266.24,0.06226
2243.1,0.06229
2219.95,0.06226
2196.81,0.06233
2173.66,0.06207
2150.52,0.06159
2127.37,0.06151
2104.23,0.06144
2081.08,0.06130
2057.94,0.06112
2034.79,0.06139
2011.65,0.06149
1988.51,0.06081
1965.36,0.06022
1942.22,0.06019
1919.07,0.05941
1895.93,0.05913
1872.78,0.05791
1849.64,0.05652
1826.49,0.05376
1803.35,0.04737
1780.2,0.06009
1757.06,0.08034
1733.92,0.06874
1710.77,0.06501
1687.63,0.06280
1664.48,0.06068
1641.34,0.05995
1618.19,0.05900
1595.05,0.05926
1571.9,0.05797
1548.76,0.05455
1525.61,0.04996
1502.47,0.07191
1479.32,0.06328
1456.18,0.06026
1433.04,0.05740
1409.89,0.05497
1386.75,0.05390
1363.6,0.05273
1340.46,0.04788
1317.31,0.04048
1294.17,0.03457
1271.02,0.02201
1247.88,0.09445
1224.73,0.13825
1201.59,0.09049
1178.45,0.11154
1155.3,0.13848
1132.16,0.09999
1109.01,0.08850
1085.87,0.07758
1062.72,0.08465
1039.58,0.07675
1016.43,0.07891
993.288,0.08685
970.144,0.08019
946.999,0.07756
923.855,0.07509
900.71,0.07121
877.565,0.07518
854.421,0.06674
831.276,0.07792
808.132,0.08451
784.987,0.07585
761.843,0.08018
738.698,0.07704
715.553,0.07576
692.409,0.07617
669.264,0.07526
646.12,0.07324
622.975,0.07149
599.83,0.06841