File: 01_Data/PC/FTIR/IS/PC_IS_T_230508_R3.dpt
7496.92,0.01602
7473.77,0.02769
7450.63,0.01495
7427.48,0.02598
7404.34,0.03055
7381.19,0.02706
7358.05,0.04960
7334.9,0.02643
7311.76,0.02769
7288.62,0.01700
7265.47,0.02212
7242.33,0.01565
7219.18,0.02227
7196.04,0.00948
7172.89,0.02306
7149.75,0.01848
7126.6,0.02451
7103.46,0.02842
7080.31,0.03073
7057.17,0.02577
7034.02,0.03014
7010.88,0.03072
6987.74,0.02205
6964.59,0.02308
6941.45,0.02076
6918.3,0.02811
6895.16,0.02900
6872.01,0.02617
6848.87,0.02967
6825.72,0.02494
6802.58,0.02941
6779.43,0.02583
6756.29,0.03123
6733.15,0.02858
6710,0.03116
6686.86,0.02514
6663.71,0.02431
6640.57,0.01836
6617.42,0.02389
6594.28,0.02104
6571.13,0.02291
6547.99,0.02493
6524.84,0.02018
6501.7,0.02037
6478.55,0.02126
6455.41,0.02705
6432.27,0.02002
6409.12,0.02495
6385.98,0.02662
6362.83,0.02297
6339.69,0.01788
6316.54,0.02019
6293.4,0.02788
6270.25,0.02211
6247.11,0.02216
6223.96,0.02385
6200.82,0.02154
6177.68,0.02092
6154.53,0.02592
6131.39,0.02287
6108.24,0.02285
6085.1,0.02262
6061.95,0.02411
6038.81,0.02521
6015.66,0.02296
5992.52,0.02250
5969.37,0.02242
5946.23,0.02294
5923.08,0.02512
5899.94,0.02189
5876.8,0.02248
5853.65,0.02400
5830.51,0.02348
5807.36,0.02242
5784.22,0.02226
5761.07,0.02247
5737.93,0.02388
5714.78,0.02145
5691.64,0.02345
5668.49,0.02305
5645.35,0.02328
5622.21,0.02193
5599.06,0.01963
5575.92,0.02460
5552.77,0.02432
5529.63,0.02293
5506.48,0.02437
5483.34,0.02377
5460.19,0.02549
5437.05,0.02430
5413.9,0.02494
5390.76,0.02316
5367.61,0.02520
5344.47,0.02298
5321.33,0.02254
5298.18,0.02433
5275.04,0.02332
5251.89,0.02434
5228.75,0.02404
5205.6,0.02307
5182.46,0.02173
5159.31,0.02343
5136.17,0.02393
5113.02,0.02421
5089.88,0.02300
5066.74,0.02519
5043.59,0.02440
5020.45,0.02379
4997.3,0.02413
4974.16,0.02441
4951.01,0.02346
4927.87,0.02483
4904.72,0.02358
4881.58,0.02393
4858.43,0.02375
4835.29,0.02377
4812.14,0.02306
4789,0.02416
4765.86,0.02331
4742.71,0.02375
4719.57,0.02324
4696.42,0.02402
4673.28,0.02426
4650.13,0.02430
4626.99,0.02486
4603.84,0.02335
4580.7,0.02369
4557.55,0.02198
4534.41,0.02362
4511.27,0.02395
4488.12,0.02419
4464.98,0.02358
4441.83,0.02386
4418.69,0.02431
4395.54,0.02318
4372.4,0.02410
4349.25,0.02322
4326.11,0.02359
4302.96,0.02321
4279.82,0.02378
4256.67,0.02414
4233.53,0.02476
4210.39,0.02402
4187.24,0.02391
4164.1,0.02366
4140.95,0.02389
4117.81,0.02427
4094.66,0.02403
4071.52,0.02423
4048.37,0.02417
4025.23,0.02391
4002.08,0.02361
3978.94,0.02351
3955.8,0.02415
3932.65,0.02422
3909.51,0.02451
3886.36,0.02413
3863.22,0.02413
3840.07,0.02400
3816.93,0.02418
3793.78,0.02477
3770.64,0.02497
3747.49,0.02278
3724.35,0.02504
3701.2,0.02396
3678.06,0.02334
3654.92,0.02299
3631.77,0.02356
3608.63,0.02264
3585.48,0.02228
3562.34,0.02207
3539.19,0.02293
3516.05,0.02206
3492.9,0.02203
3469.76,0.02196
3446.61,0.02079
3423.47,0.02173
3400.33,0.02285
3377.18,0.02173
3354.04,0.02158
3330.89,0.02128
3307.75,0.02164
3284.6,0.02229
3261.46,0.02254
3238.31,0.02182
3215.17,0.02289
3192.02,0.02261
3168.88,0.02322
3145.73,0.02272
3122.59,0.02291
3099.45,0.02264
3076.3,0.02232
3053.16,0.02224
3030.01,0.02257
3006.87,0.02245
2983.72,0.02207
2960.58,0.02139
2937.43,0.02210
2914.29,0.02213
2891.14,0.02303
2868,0.02210
2844.86,0.02249
2821.71,0.02273
2798.57,0.02337
2775.42,0.02344
2752.28,0.02317
2729.13,0.02327
2705.99,0.02293
2682.84,0.02297
2659.7,0.02290
2636.55,0.02319
2613.41,0.02359
2590.26,0.02339
2567.12,0.02294
2543.98,0.02324
2520.83,0.02300
2497.69,0.02363
2474.54,0.02326
2451.4,0.02321
2428.25,0.02374
2405.11,0.02307
2381.96,0.02329
2358.82,0.02248
2335.67,0.02166
2312.53,0.02377
2289.39,0.02312
2266.24,0.02306
2243.1,0.02313
2219.95,0.02323
2196.81,0.02298
2173.66,0.02267
2150.52,0.02276
2127.37,0.02309
2104.23,0.02292
2081.08,0.02299
2057.94,0.02262
2034.79,0.02297
2011.65,0.02282
1988.51,0.02300
1965.36,0.02273
1942.22,0.02295
1919.07,0.02288
1895.93,0.02280
1872.78,0.02227
1849.64,0.02242
1826.49,0.02225
1803.35,0.02144
1780.2,0.02106
1757.06,0.01991
1733.92,0.02190
1710.77,0.02213
1687.63,0.02049
1664.48,0.02075
1641.34,0.02067
1618.19,0.02078
1595.05,0.02061
1571.9,0.02059
1548.76,0.02047
1525.61,0.02059
1502.47,0.02051
1479.32,0.02065
1456.18,0.01947
1433.04,0.02038
1409.89,0.01967
1386.75,0.01980
1363.6,0.02002
1340.46,0.01923
1317.31,0.01857
1294.17,0.01917
1271.02,0.02084
1247.88,0.02169
1224.73,0.02095
1201.59,0.01977
1178.45,0.01925
1155.3,0.01920
1132.16,0.01955
1109.01,0.02035
1085.87,0.02029
1062.72,0.02153
1039.58,0.02138
1016.43,0.02129
993.288,0.02269
970.144,0.02219
946.999,0.02230
923.855,0.02132
900.71,0.02059
877.565,0.02097
854.421,0.02053
831.276,0.02063
808.132,0.02017
784.987,0.01967
761.843,0.01908
738.698,0.01940
715.553,0.01981
692.409,0.01810
669.264,0.01870
646.12,0.01890
622.975,0.01911
599.83,0.01600