File: 01_Data/Helmet_Buckle/STA/N2/30K_min/Helmet_Buckle_STA_N2_30KData_250304_R2.csv
Temp./C,Time/min,DSC/(mW/mg),Mass loss/mg
60.0,0.0,1.68164,-0.0038214
62.3,0.139463,1.94258,-0.00297717
64.6,0.265973,2.1946,-0.00229766
66.9,0.385327,2.42209,-0.00341709
69.2,0.497574,2.62692,-0.00355708
71.5,0.603183,2.78895,-0.00481211
73.8,0.708113,2.84573,-0.00448118
76.1,0.808595,2.85713,-0.00486813
78.4,0.905555,2.85242,-0.00519068
80.7,1.00137,2.87965,-0.0040632
83,1.09499,2.93827,-0.00626542
85.3,1.18717,2.99457,-0.00432091
87.6,1.27766,3.0696,-0.00544594
89.9,1.36756,3.16089,-0.00461495
92.2,1.45561,3.24012,-0.00449798
94.5,1.54234,3.31842,-0.00382328
96.8,1.62872,3.3988,-0.00419487
99.1,1.71373,3.47834,-0.00513016
101.4,1.79816,3.54684,-0.00525764
103.7,1.88146,3.62093,-0.00687334
106,1.96463,3.69845,-0.00612243
108.3,2.04751,3.75705,-0.00710994
110.6,2.13023,3.82981,-0.00470102
112.9,2.21217,3.8976,-0.00421536
115.2,2.29313,3.95005,-0.00428378
117.5,2.37359,4.01561,-0.00427718
119.8,2.45474,4.07253,-0.00324822
122.1,2.53457,4.13705,-0.00719023
124.4,2.61426,4.21122,-0.00731547
126.7,2.69285,4.27254,-0.00637005
129,2.77131,4.332,-0.00584332
131.3,2.84903,4.39402,-0.00602745
133.6,2.92677,4.44971,-0.00602945
135.9,3.00351,4.49091,-0.00608446
138.2,3.07989,4.5513,-0.00335683
140.5,3.15605,4.59671,-0.00471648
142.8,3.23149,4.64338,-0.00504427
145.1,3.30681,4.70218,-0.00472
147.4,3.38182,4.75796,-0.00472348
149.7,3.45621,4.81118,-0.004714
152,3.53064,4.86929,-0.00471086
154.3,3.60434,4.9102,-0.00471906
156.6,3.67795,4.96065,-0.00471
158.9,3.75111,5.0044,-0.00471001
161.2,3.82467,5.04887,-0.00431145
163.5,3.89724,5.1021,-0.00471835
165.8,3.97022,5.13774,-0.00337642
168.1,4.04286,5.18091,-0.00471995
170.4,4.11504,5.21669,-0.00472
172.7,4.1872,5.25392,-0.00471999
175,4.25918,5.28218,-0.00336013
177.3,4.33127,5.31043,-0.0034
179.6,4.4027,5.34973,-0.00340176
181.9,4.47347,5.38455,-0.00526975
184.2,4.5451,5.42666,-0.00739509
186.5,4.61596,5.4526,-0.00734525
188.8,4.68648,5.49872,-0.00603313
191.1,4.7567,5.53464,-0.00470658
193.4,4.82693,5.56465,-0.0047736
195.7,4.89721,5.60587,-0.00602988
198,4.96718,5.65375,-0.00603
200.3,5.03686,5.68176,-0.00603716
202.6,5.10689,5.71051,-0.00536999
204.9,5.17565,5.74921,-0.00533783
207.2,5.24608,5.78509,-0.00569889
209.5,5.31544,5.82326,-0.00750492
211.8,5.38484,5.86723,-0.00740535
214.1,5.45376,5.9112,-0.00807989
216.4,5.52354,5.95823,-0.00741688
218.7,5.59269,6.0157,-0.00663949
221,5.6621,6.06457,-0.00405011
223.3,5.73091,6.13341,-0.0040472
225.6,5.80054,6.2051,-0.00669792
227.9,5.86946,6.27879,-0.00470419
230.2,5.93828,6.34759,-0.00408885
232.5,6.00733,6.39502,-0.00591997
234.8,6.07619,6.47641,-0.00592001
237.1,6.14514,6.55265,-0.00583795
239.4,6.214,6.66887,-0.00724003
241.7,6.28268,6.84991,-0.00723892
244,6.35273,7.13112,-0.00592744
246.3,6.42311,7.5686,-0.00460917
248.6,6.49392,8.35195,-0.005927
250.9,6.56701,9.63823,-0.00592
253.2,6.64083,11.2586,-0.00508274
255.5,6.71585,12.9741,-0.00493047
257.8,6.79055,14.6976,-0.00504789
260.1,6.86413,16.2325,-0.00493999
262.4,6.92606,14.2524,-0.00494001
264.7,6.98584,11.5842,-0.0049621
267,7.04747,9.77066,-0.00461001
269.3,7.11119,8.51217,-0.00480285
271.6,7.17665,7.7086,-0.00458426
273.9,7.24253,7.15828,-0.00591842
276.2,7.30937,6.81509,-0.00592
278.5,7.37642,6.60254,-0.00591997
280.8,7.44372,6.47567,-0.00529246
283.1,7.51161,6.38416,-0.00460003
285.4,7.57939,6.32571,-0.0046
287.7,7.64754,6.28598,-0.00460004
290,7.71501,6.25031,-0.00455052
292.3,7.78336,6.23208,-0.00453963
294.6,7.85129,6.22246,-0.00559029
296.9,7.91959,6.2182,-0.00367901
299.2,7.98794,6.20057,-0.00476697
301.5,8.05588,6.20794,-0.00691194
303.8,8.12408,6.20476,-0.00691004
306.1,8.19229,6.1988,-0.00549722
308.4,8.2607,6.2022,-0.00464403
310.7,8.32886,6.19945,-0.0033912
313,8.39721,6.19473,-0.00603948
315.3,8.46542,6.19354,-0.00603964
317.6,8.53383,6.19218,-0.00735633
319.9,8.60225,6.18615,-0.00734946
322.2,8.67045,6.19169,-0.00867667
324.5,8.73883,6.20451,-0.00867009
326.8,8.8078,6.2061,-0.00767579
329.1,8.87622,6.20514,-0.00771186
331.4,8.94477,6.1977,-0.00868703
333.7,9.01349,6.19202,-0.00872939
336,9.08199,6.20727,-0.00878
338.3,9.15062,6.20955,-0.00878005
340.6,9.21975,6.22742,-0.00964016
342.9,9.28856,6.23531,-0.0100885
345.2,9.35733,6.24849,-0.01141
347.5,9.42656,6.2495,-0.0113801
349.8,9.49523,6.28233,-0.01141
352.1,9.56445,6.29745,-0.00993526
354.4,9.63342,6.31697,-0.0162085
356.7,9.7028,6.33594,-0.0191148
359,9.77223,6.36511,-0.0180001
361.3,9.84132,6.40263,-0.0194126
363.6,9.91072,6.42904,-0.0214097
365.9,9.98017,6.48448,-0.0234283
368.2,10.0496,6.55499,-0.024695
370.5,10.1193,6.60987,-0.0260282
372.8,10.1888,6.70897,-0.0284412
375.1,10.2589,6.80175,-0.0319535
377.4,10.3288,6.94454,-0.0353487
379.7,10.399,7.09547,-0.0399065
382,10.469,7.26383,-0.0441562
384.3,10.5395,7.45893,-0.0522586
386.6,10.6096,7.66739,-0.0554043
388.9,10.6805,7.87767,-0.0626212
391.2,10.7508,8.08533,-0.0706127
393.5,10.8215,8.30399,-0.0802804
395.8,10.8925,8.60399,-0.0897613
398.1,10.9634,8.88802,-0.100705
400.4,11.0341,9.07486,-0.116229
402.7,11.1054,9.50661,-0.130523
405,11.1766,9.7643,-0.152587
407.3,11.2479,10.0892,-0.174471
409.6,11.3192,10.4423,-0.197463
411.9,11.3904,10.7978,-0.223356
414.2,11.4623,11.1518,-0.251062
416.5,11.5341,11.486,-0.28469
418.8,11.606,11.8282,-0.321417
421.1,11.6777,12.1731,-0.357668
423.4,11.7493,12.519,-0.401188
425.7,11.8212,12.849,-0.44725
428,11.893,13.1776,-0.49189
430.3,11.9647,13.4531,-0.551496
432.6,12.0364,13.722,-0.608116
434.9,12.1081,13.958,-0.673221
437.2,12.1803,14.3139,-0.744424
439.5,12.2528,14.7932,-0.817364
441.8,12.3248,15.024,-0.894857
444.1,12.398,15.4924,-0.979995
446.4,12.4703,15.9002,-1.07291
448.7,12.5419,16.0036,-1.17093
451,12.6139,16.2719,-1.27547
453.3,12.6861,16.4766,-1.38353
455.6,12.7579,16.6847,-1.49807
457.9,12.8306,16.9889,-1.62433
460.2,12.9028,17.1022,-1.76096
462.5,12.9745,17.0964,-1.89962
464.8,13.0454,17.0154,-2.03816
467.1,13.1164,16.6958,-2.18163
469.4,13.1867,16.3116,-2.33098
471.7,13.2567,15.7377,-2.4816
474,13.3256,15.0201,-2.61933
476.3,13.3944,14.0784,-2.75988
478.6,13.4622,12.9495,-2.89569
480.9,13.5298,11.6357,-3.01915
483.2,13.5971,10.2835,-3.13276
485.5,13.6639,8.88549,-3.24024
487.8,13.7309,7.4709,-3.33418
490.1,13.7983,6.20145,-3.41649
492.4,13.8659,5.07294,-3.49038
494.7,13.9345,4.08534,-3.55323
497,14.0033,3.28638,-3.60441
499.3,14.073,2.60519,-3.64584
501.6,14.1434,2.08679,-3.68867
503.9,14.2137,1.6425,-3.72087
506.2,14.2845,1.31637,-3.74467
508.5,14.356,1.04365,-3.76353
510.8,14.4276,0.803176,-3.7767
513.1,14.4987,0.614919,-3.78804
515.4,14.5711,0.473256,-3.7968
517.7,14.6433,0.389518,-3.80231
520,14.7154,0.324085,-3.80666
522.3,14.7882,0.282472,-3.80689
524.6,14.8601,0.223729,-3.80821
526.9,14.9334,0.175637,-3.80954
529.2,15.0063,0.187958,-3.81088
531.5,15.0792,0.189509,-3.81088
533.8,15.1519,0.183422,-3.81087
536.1,15.2252,0.179619,-3.80957
538.4,15.2982,0.168646,-3.81089
540.7,15.3715,0.130892,-3.81229
543,15.4446,0.110025,-3.81296
545.3,15.5174,0.0992011,-3.81179
547.6,15.591,0.0958461,-3.81297
549.9,15.664,0.0950894,-3.81427
552.2,15.7371,0.0957549,-3.81439
554.5,15.8107,0.0935634,-3.8133
556.8,15.8837,0.123804,-3.81385
559.1,15.9573,0.118187,-3.81905
561.4,16.0307,0.115427,-3.81273
563.7,16.1041,0.122628,-3.81409
566,16.1779,0.115877,-3.81478
568.3,16.2511,0.120943,-3.81472
570.6,16.325,0.117036,-3.81507
572.9,16.3983,0.123773,-3.81604
575.2,16.4718,0.127464,-3.81604
577.5,16.5455,0.131633,-3.81605
579.8,16.6192,0.141383,-3.81543
582.1,16.6927,0.14273,-3.8167
584.4,16.7669,0.164818,-3.81736
586.7,16.8406,0.170799,-3.81868
589,16.9143,0.188748,-3.81868
591.3,16.9878,0.195577,-3.81737
593.6,17.0622,0.204832,-3.81736
595.9,17.1361,0.221351,-3.81834
598.2,17.21,0.241338,-3.81834
600.5,17.2842,0.235624,-3.81834
602.8,17.3583,0.255753,-3.81833
605.1,17.4326,0.261688,-3.81768
607.4,17.5067,0.263258,-3.81768
609.7,17.5811,0.25993,-3.8194
612,17.6547,0.261083,-3.82075
614.3,17.7296,0.259739,-3.81682
616.6,17.8038,0.268003,-3.81648
618.9,17.8782,0.274405,-3.81648
621.2,17.9523,0.275982,-3.8182
623.5,18.027,0.262648,-3.81977
625.8,18.1013,0.243587,-3.81978
628.1,18.1761,0.236967,-3.81978
630.4,18.2505,0.23336,-3.81905
632.7,18.3247,0.234355,-3.81912
635,18.3994,0.248238,-3.81912
637.3,18.474,0.249688,-3.81912
639.6,18.5487,0.284094,-3.81912
641.9,18.6232,0.301769,-3.8178
644.2,18.6976,0.300634,-3.81911
646.5,18.7726,0.301053,-3.82109
648.8,18.8474,0.296107,-3.82143
651.1,18.9221,0.292415,-3.82241
653.4,18.9969,0.296559,-3.82148
655.7,19.0717,0.30584,-3.82241
658,19.1465,0.30106,-3.82241
660.3,19.2216,0.30297,-3.82237
662.6,19.296,0.297273,-3.82373
664.9,19.3714,0.292883,-3.82372
667.2,19.446,0.298718,-3.82247
669.5,19.5209,0.301665,-3.8224
671.8,19.5961,0.251934,-3.82242
674.1,19.671,0.268536,-3.82384
676.4,19.7461,0.263517,-3.82481
678.7,19.8205,0.248184,-3.82718
681,19.8962,0.238009,-3.8258
683.3,19.9714,0.230971,-3.82449
685.6,20.0464,0.217686,-3.82582
687.9,20.1221,0.20827,-3.82581
690.2,20.1975,0.213073,-3.82581
692.5,20.2724,0.215689,-3.82687
694.8,20.3478,0.24586,-3.82712
697.1,20.4231,0.239157,-3.82822
699.4,20.4982,0.228299,-3.82733
701.7,20.5737,0.22081,-3.82603
704,20.6488,0.22391,-3.82603
706.3,20.7247,0.231436,-3.82603
708.6,20.8,0.230964,-3.82735
710.9,20.8757,0.220607,-3.82728
713.2,20.9511,0.220008,-3.82734
715.5,21.0267,0.231777,-3.828
717.8,21.1026,0.227509,-3.82932
720.1,21.1781,0.232829,-3.82932
722.4,21.2541,0.18863,-3.82803
724.7,21.3298,0.1886,-3.82801
727,21.4055,0.209579,-3.82826
729.3,21.481,0.219786,-3.82649
731.6,21.5569,0.216873,-3.82654
733.9,21.6326,0.228611,-3.82922
736.2,21.7085,0.197479,-3.82922
738.5,21.7848,0.202015,-3.83053
740,21.8344,-0.0596735,-3.82923