File: 01_Data/Helmet_Buckle/STA/N2/30K_min/Helmet_Buckle_STA_N2_30KData_250402_R4.csv
Temp./C,Time/min,DSC/(mW/mg),Mass loss/mg
35.0,0.0,1.46066,0.00159141
37.4,0.149159,1.71356,-6.99761e-06
39.8,0.28569,1.927,-0.000522628
42.2,0.412058,2.12171,-0.000480696
44.6,0.531136,2.28916,0.000166793
47,0.646369,2.4485,0.000545648
49.4,0.7558,2.59356,-0.00181301
51.8,0.863733,2.72175,-0.0015134
54.2,0.967858,2.85613,-0.000463292
56.6,1.06876,2.99299,-0.000533782
59,1.16949,3.13358,0.00129508
61.4,1.26877,3.26758,0.001546
63.8,1.36546,3.40878,-0.000426392
66.2,1.46129,3.5311,-0.000193096
68.6,1.55499,3.60446,-0.000236916
71,1.64876,3.63867,-0.00339525
73.4,1.74056,3.61275,-0.00425943
75.8,1.83095,3.54694,-0.00644045
78.2,1.92107,3.48131,-0.00626423
80.6,2.01088,3.45523,-0.00793099
83,2.09883,3.45494,-0.00794568
85.4,2.18737,3.47007,-0.00828591
87.8,2.27426,3.48268,-0.00657467
90.2,2.36025,3.50307,-0.00613606
92.6,2.44605,3.53811,-0.00781864
95,2.5308,3.58817,-0.00990193
97.4,2.6153,3.63218,-0.00855631
99.8,2.69906,3.68941,-0.00855208
102.2,2.78243,3.75333,-0.00855121
104.6,2.86534,3.81818,-0.00857131
107,2.94744,3.86558,-0.00861606
109.4,3.02958,3.94618,-0.0100506
111.8,3.11104,4.00783,-0.0099993
114.2,3.19221,4.06535,-0.00999184
116.6,3.27427,4.12389,-0.0099725
119,3.35508,4.18613,-0.00872061
121.4,3.43521,4.24105,-0.00857526
123.8,3.51538,4.29605,-0.00857597
126.2,3.59484,4.36399,-0.00866957
128.6,3.67407,4.42105,-0.00932599
131,3.75278,4.46171,-0.0102983
133.4,3.83112,4.53241,-0.0101857
135.8,3.90871,4.584,-0.00888009
138.2,3.98559,4.62344,-0.0101987
140.6,4.06254,4.67862,-0.0101869
143,4.14044,4.72795,-0.010203
145.4,4.21653,4.77222,-0.0115186
147.8,4.29273,4.81986,-0.0128176
150.2,4.36879,4.86851,-0.01283
152.6,4.44418,4.90782,-0.012831
155,4.5198,4.9656,-0.0102083
157.4,4.5951,5.0073,-0.00888976
159.8,4.67018,5.04109,-0.00880339
162.2,4.74501,5.07577,-0.0104791
164.6,4.81999,5.11145,-0.0115168
167,4.89475,5.15222,-0.0115254
169.4,4.96916,5.17738,-0.01152
171.8,5.04371,5.21094,-0.0115192
174.2,5.11778,5.24168,-0.0102057
176.6,5.19189,5.26955,-0.0102021
179,5.2656,5.3186,-0.0112029
181.4,5.33927,5.35006,-0.0123236
183.8,5.41248,5.39156,-0.0112032
186.2,5.48611,5.41799,-0.0125003
188.6,5.5591,5.45502,-0.0118708
191,5.63177,5.48701,-0.01185
193.4,5.70451,5.52161,-0.01185
195.8,5.7772,5.54328,-0.01185
198.2,5.84937,5.57699,-0.0118745
200.6,5.92188,5.61676,-0.0111901
203,5.99449,5.65251,-0.01119
205.4,6.06658,5.6925,-0.0112177
207.8,6.13857,5.7375,-0.01251
210.2,6.21099,5.7784,-0.01251
212.6,6.28209,5.8223,-0.0120544
215,6.35489,5.86966,-0.01185
217.4,6.4259,5.92739,-0.0118501
219.8,6.49877,5.98087,-0.0111801
222.2,6.57061,6.04037,-0.0122348
224.6,6.64233,6.10015,-0.0125117
227,6.71396,6.1539,-0.0111863
229.4,6.78567,6.23275,-0.0111901
231.8,6.85732,6.31975,-0.0115385
234.2,6.92916,6.40197,-0.0125062
236.6,7.00113,6.49516,-0.0138768
239,7.0726,6.62564,-0.01449
241.4,7.14436,6.80226,-0.01449
243.8,7.21695,7.0771,-0.01449
246.2,7.2898,7.52083,-0.01449
248.6,7.36331,8.24736,-0.0144901
251,7.43929,9.58531,-0.015215
253.4,7.51733,11.4159,-0.015154
255.8,7.59515,13.3157,-0.0138532
258.2,7.67278,15.1263,-0.0139687
260.6,7.74763,16.288,-0.0139008
263,7.80978,13.4256,-0.0138311
265.4,7.87294,10.8634,-0.01383
267.8,7.9379,9.19053,-0.0135079
270.2,8.00497,8.07493,-0.0134999
272.6,8.07313,7.36339,-0.0121565
275,8.14257,6.92064,-0.0135804
277.4,8.21234,6.63204,-0.0154527
279.8,8.28239,6.45666,-0.01536
282.2,8.35246,6.36272,-0.01536
284.6,8.4233,6.29262,-0.0153606
287,8.49376,6.25151,-0.0169004
289.4,8.56468,6.21398,-0.0154581
291.8,8.63564,6.19668,-0.0164671
294.2,8.7066,6.19573,-0.01646
296.6,8.77736,6.18879,-0.01646
299,8.84896,6.19389,-0.01646
301.4,8.92005,6.19761,-0.01646
303.8,8.99101,6.19058,-0.0164604
306.2,9.06221,6.18385,-0.0177686
308.6,9.13336,6.17446,-0.0178387
311,9.20436,6.17229,-0.0190635
313.4,9.27573,6.17267,-0.0174798
315.8,9.34718,6.18092,-0.0206928
318.2,9.41834,6.17338,-0.0220601
320.6,9.48984,6.16004,-0.02206
323,9.56127,6.17228,-0.0220581
325.4,9.63278,6.17476,-0.0210683
327.8,9.70426,6.17291,-0.0210719
330.2,9.77557,6.17093,-0.0236837
332.6,9.84717,6.16706,-0.0240642
335,9.91855,6.1597,-0.0236951
337.4,9.99017,6.15932,-0.0250362
339.8,10.062,6.17077,-0.0242452
342.2,10.134,6.18137,-0.0277881
344.6,10.2057,6.18348,-0.0296672
347,10.2775,6.19881,-0.0290963
349.4,10.3495,6.20496,-0.0305104
351.8,10.4218,6.23073,-0.0318304
354.2,10.494,6.24294,-0.0318301
356.6,10.5662,6.26231,-0.0331241
359,10.6384,6.28829,-0.0344689
361.4,10.7104,6.30809,-0.0371068
363.8,10.783,6.36123,-0.0382838
366.2,10.8552,6.39548,-0.039759
368.6,10.9277,6.44274,-0.0397188
371,11.0005,6.49966,-0.0430701
373.4,11.0729,6.58649,-0.0437023
375.8,11.1459,6.65697,-0.0473372
378.2,11.219,6.76686,-0.0494218
380.6,11.2912,6.88064,-0.0539335
383,11.3651,7.04326,-0.0595851
385.4,11.4382,7.21251,-0.0633847
387.8,11.5115,7.41694,-0.0719245
390.2,11.5852,7.65779,-0.0800845
392.6,11.659,7.88912,-0.086875
395,11.7328,8.11953,-0.0957578
397.4,11.8065,8.35248,-0.105175
399.8,11.8806,8.6212,-0.115906
402.2,11.9544,8.80503,-0.127911
404.6,12.0287,8.99845,-0.141839
407,12.1023,9.16262,-0.156991
409.4,12.176,9.28571,-0.174671
411.8,12.2506,9.46207,-0.204186
414.2,12.3243,9.7328,-0.228481
416.6,12.3998,10.0924,-0.258146
419,12.4747,10.4261,-0.29076
421.4,12.5496,10.7766,-0.327292
423.8,12.6248,11.1398,-0.367019
426.2,12.7,11.4893,-0.409645
428.6,12.7751,11.8185,-0.45879
431,12.8504,12.1249,-0.51291
433.4,12.9249,12.4334,-0.569782
435.8,13.0004,12.763,-0.632095
438.2,13.0756,13.0829,-0.700491
440.6,13.1513,13.4105,-0.773208
443,13.2268,13.7783,-0.853217
445.4,13.3025,14.1466,-0.939709
447.8,13.3784,14.5563,-1.03388
450.2,13.4546,14.9639,-1.13738
452.6,13.5305,15.3678,-1.24831
455,13.6065,15.7371,-1.3698
457.4,13.6826,16.015,-1.50195
459.8,13.7576,16.1532,-1.6439
462.2,13.8332,16.1703,-1.79381
464.6,13.9078,16.0234,-1.94285
467,13.9818,15.7255,-2.09524
469.4,14.0553,15.2957,-2.24804
471.8,14.1283,14.6979,-2.4016
474.2,14.2012,13.9477,-2.55649
476.6,14.2731,13.0333,-2.70618
479,14.3443,11.9485,-2.8445
481.4,14.4153,10.7152,-2.97631
483.8,14.4862,9.4189,-3.09755
486.2,14.5566,8.14362,-3.21067
488.6,14.6273,6.85838,-3.3173
491,14.6982,5.54971,-3.41255
493.4,14.7685,4.39538,-3.4945
495.8,14.84,3.39756,-3.56111
498.2,14.9122,2.5767,-3.6176
500.6,14.9852,1.9183,-3.66577
503,15.0586,1.42264,-3.70031
505.4,15.1324,1.03141,-3.7303
507.8,15.207,0.710763,-3.75321
510.2,15.2814,0.463446,-3.77055
512.6,15.3564,0.292036,-3.78227
515,15.4313,0.153973,-3.7908
517.4,15.507,0.0563478,-3.79524
519.8,15.5825,-0.0131372,-3.80088
522.2,15.6579,-0.0739319,-3.80072
524.6,15.7338,-0.150752,-3.80212
527,15.8099,-0.153424,-3.80473
529.4,15.886,-0.145329,-3.80604
531.8,15.962,-0.135376,-3.80472
534.2,16.0385,-0.146006,-3.80604
536.6,16.1149,-0.159377,-3.80595
539,16.1915,-0.164019,-3.80803
541.4,16.2675,-0.167001,-3.80803
543.8,16.3443,-0.174098,-3.80809
546.2,16.4203,-0.179661,-3.80869
548.6,16.4964,-0.192178,-3.80973
551,16.5732,-0.193459,-3.81196
553.4,16.6505,-0.193722,-3.81193
555.8,16.7268,-0.198952,-3.81098
558.2,16.8035,-0.202222,-3.8114
560.6,16.8806,-0.19284,-3.81171
563,16.9575,-0.187737,-3.81198
565.4,17.034,-0.196669,-3.81198
567.8,17.1113,-0.201029,-3.812
570.2,17.1878,-0.213668,-3.81132
572.6,17.2651,-0.216931,-3.8133
575,17.3421,-0.21287,-3.8133
577.4,17.4193,-0.219214,-3.8133
579.8,17.4963,-0.222523,-3.8133
582.2,17.5733,-0.242195,-3.81461
584.6,17.6506,-0.25481,-3.81329
587,17.7281,-0.231259,-3.81065
589.4,17.8055,-0.236107,-3.81191
591.8,17.8828,-0.240166,-3.81523
594.2,17.9602,-0.240412,-3.81858
596.6,18.038,-0.228632,-3.81851
599,18.1154,-0.22781,-3.81725
601.4,18.1931,-0.22629,-3.81719
603.8,18.2704,-0.238631,-3.81691
606.2,18.3482,-0.246108,-3.81344
608.6,18.426,-0.234246,-3.81825
611,18.5037,-0.242545,-3.81757
613.4,18.5816,-0.250558,-3.81757
615.8,18.6597,-0.248989,-3.81625
618.2,18.7374,-0.230034,-3.8173
620.6,18.8151,-0.232852,-3.81759
623,18.8933,-0.232975,-3.81821
625.4,18.971,-0.22174,-3.81823
627.8,19.0494,-0.221074,-3.81823
630.2,19.1274,-0.203428,-3.81823
632.6,19.2053,-0.211724,-3.81756
635,19.2833,-0.21613,-3.81757
637.4,19.361,-0.221388,-3.81725
639.8,19.4393,-0.245544,-3.81726
642.2,19.5175,-0.428961,-3.81857
644.6,19.5957,-0.338007,-3.81858
647,19.6731,-0.282222,-3.81929
649.4,19.7522,-0.278936,-3.81817
651.8,19.8303,-0.264986,-3.81825
654.2,19.9088,-0.27748,-3.82087
656.6,19.9869,-0.294345,-3.81955
659,20.0651,-0.285126,-3.81955
661.4,20.1435,-0.293614,-3.81954
663.8,20.2217,-0.284714,-3.82087
666.2,20.3001,-0.290882,-3.82087
668.6,20.3785,-0.296057,-3.82087
671,20.4571,-0.305663,-3.82149
673.4,20.5353,-0.307297,-3.82087
675.8,20.6138,-0.312249,-3.81926
678.2,20.6921,-0.31152,-3.81921
680.6,20.7706,-0.316187,-3.82235
683,20.8492,-0.305707,-3.82355
685.4,20.9275,-0.30142,-3.82509
687.8,21.0063,-0.299342,-3.82591
690.2,21.0848,-0.292727,-3.82496
692.6,21.1634,-0.309085,-3.82362
695,21.2422,-0.31811,-3.82497
697.4,21.3206,-0.312912,-3.8246
699.8,21.3995,-0.312484,-3.82461
702.2,21.4784,-0.309548,-3.82559
704.6,21.557,-0.320339,-3.82658
707,21.636,-0.316921,-3.82658
709.4,21.7146,-0.324469,-3.82658
711.8,21.7936,-0.326893,-3.8273
714.2,21.8725,-0.311713,-3.82724
716.6,21.9515,-0.30581,-3.82954
719,22.0308,-0.319271,-3.82718
721.4,22.1097,-0.304995,-3.8256
723.8,22.1889,-0.299472,-3.82692
726.2,22.268,-0.290233,-3.8271
728.6,22.3468,-0.276979,-3.82691
731,22.4261,-0.277637,-3.82691
733.4,22.5054,-0.25534,-3.82691
735.8,22.5845,-0.249094,-3.82828
738.2,22.6637,-0.233205,-3.82956
740,22.7232,-0.231487,-3.82955