File: 01_Data/Helmet_Buckle/STA/N2/30K_min/Helmet_Buckle_STA_N2_30KData_250307_R3.csv
Temp./C,Time/min,DSC/(mW/mg),Mass loss/mg
60.0,0.0,1.7855,-0.00342094
62.3,0.137886,2.0672,-0.00412746
64.6,0.264433,2.32431,-0.00241668
66.9,0.382633,2.56851,-0.00667253
69.2,0.494675,2.79861,-0.00603472
71.5,0.60178,2.95349,-0.00554442
73.8,0.704403,2.98455,-0.00496022
76.1,0.804224,2.98782,-0.00521038
78.4,0.900023,2.9826,-0.00400193
80.7,0.996548,3.01266,-0.000216668
83,1.09044,3.05253,-0.007398
85.3,1.18148,3.13812,-0.00522969
87.6,1.27241,3.22572,-0.00700293
89.9,1.36305,3.31957,-0.00688724
92.2,1.45077,3.40385,-0.00604758
94.5,1.53768,3.49707,-0.00578063
96.8,1.6244,3.58817,-0.00477158
99.1,1.70936,3.70464,-0.00424522
101.4,1.79406,3.77935,-0.00476325
103.7,1.8779,3.86201,-0.00633171
106,1.96106,3.95392,-0.00781426
108.3,2.04411,4.04208,-0.00780794
110.6,2.1264,4.12974,-0.00911617
112.9,2.20829,4.21703,-0.0104461
115.2,2.28928,4.28168,-0.01083
117.5,2.37055,4.36798,-0.00933476
119.8,2.45078,4.45236,-0.00668136
122.1,2.5303,4.5236,-0.00537998
124.4,2.61018,4.59698,-0.00537243
126.7,2.68881,4.65566,-0.00670793
129,2.76704,4.72883,-0.00567295
131.3,2.84547,4.788,-0.00539521
133.6,2.92283,4.85179,-0.00394899
135.9,2.99926,4.92328,-0.00391339
138.2,3.07546,4.98645,-0.00517667
140.5,3.15145,5.04311,-0.00713974
142.8,3.22728,5.10557,-0.00586432
145.1,3.30277,5.17454,-0.00583105
147.4,3.37728,5.21816,-0.00835062
149.7,3.45206,5.29743,-0.00688343
152,3.52644,5.34601,-0.00586364
154.3,3.60042,5.40512,-0.00586343
156.6,3.67374,5.46575,-0.00450021
158.9,3.74745,5.50441,-0.00580697
161.2,3.82081,5.54814,-0.00532144
163.5,3.8933,5.60707,-0.00314748
165.8,3.9657,5.65192,-0.00511663
168.1,4.03916,5.69181,-0.00640966
170.4,4.11165,5.74887,-0.00651117
172.7,4.18348,5.78627,-0.00648945
175,4.25607,5.82633,-0.00385454
177.3,4.32786,5.8888,-0.00493149
179.6,4.39946,5.92336,-0.00385005
181.9,4.4707,5.95146,-0.00385
184.2,4.54202,6.00095,-0.00385
186.5,4.61295,6.0475,-0.00386561
188.8,4.68351,6.08612,-0.00252978
191.1,4.75416,6.12282,-0.0031346
193.4,4.82437,6.17698,-0.00513482
195.7,4.89478,6.23589,-0.00520138
198,4.96478,6.27331,-0.00521324
200.3,5.03499,6.31862,-0.00655877
202.6,5.10488,6.3486,-0.00647811
204.9,5.17444,6.38796,-0.00549082
207.2,5.24466,6.42986,-0.0054887
209.5,5.31425,6.49191,-0.00617067
211.8,5.38356,6.54354,-0.0068043
214.1,5.45325,6.59453,-0.00680938
216.4,5.52276,6.65514,-0.00582249
218.7,5.59228,6.72209,-0.00811193
221,5.66169,6.77739,-0.00744632
223.3,5.73077,6.85883,-0.00616001
225.6,5.80005,6.93331,-0.00616
227.9,5.86907,7.01745,-0.0061685
230.2,5.93803,7.09579,-0.00483952
232.5,6.00774,7.18457,-0.00485308
234.8,6.07644,7.26554,-0.00746378
237.1,6.14587,7.38639,-0.0101392
239.4,6.21492,7.51474,-0.0101
241.7,6.2842,7.70738,-0.00932729
244,6.35374,7.99518,-0.00804329
246.3,6.42401,8.41337,-0.00615108
248.6,6.4952,9.125,-0.00615
250.9,6.56779,10.3887,-0.00615
253.2,6.64245,12.0868,-0.00614899
255.5,6.7173,13.9211,-0.00616411
257.8,6.7926,15.6036,-0.00746989
260.1,6.86721,17.2776,-0.0075548
262.4,6.92933,15.5474,-0.00880492
264.7,6.9891,12.7006,-0.0101795
267,7.051,10.7639,-0.0109079
269.3,7.11488,9.45734,-0.00999367
271.6,7.17993,8.61184,-0.00599035
273.9,7.24587,8.07107,-0.00351071
276.2,7.31259,7.70176,-0.00484663
278.5,7.38008,7.46171,-0.00493631
280.8,7.4469,7.36299,-0.00733803
283.1,7.51536,7.24051,-0.00636603
285.4,7.58286,7.18393,-0.00539031
287.7,7.65139,7.14155,-0.00538701
290,7.71967,7.12948,-0.00724713
292.3,7.7882,7.09489,-0.00737234
294.6,7.85653,7.10544,-0.010412
296.9,7.92424,7.08872,-0.0102948
299.2,7.99329,7.09549,-0.00746027
301.5,8.06195,7.08745,-0.00879011
303.8,8.12976,7.08453,-0.00879
306.1,8.1989,7.08707,-0.00878988
308.4,8.26728,7.08101,-0.00955009
310.7,8.33593,7.084,-0.00808722
313,8.40415,7.09695,-0.00945022
315.3,8.47313,7.09355,-0.00857905
317.6,8.54173,7.07541,-0.00848394
319.9,8.61039,7.09092,-0.00960186
322.2,8.67943,7.0686,-0.00678024
324.5,8.74771,7.05905,-0.00800114
326.8,8.81672,7.07025,-0.0093764
329.1,8.88488,7.07719,-0.00933151
331.4,8.95436,7.07032,-0.0116396
333.7,9.02325,7.0497,-0.0132942
336,9.09198,7.0489,-0.01329
338.3,9.16101,7.074,-0.013286
340.6,9.23028,7.05678,-0.0112419
342.9,9.29922,7.04619,-0.0105324
345.2,9.36844,7.05646,-0.0121283
347.5,9.4375,7.05951,-0.0121972
349.8,9.50696,7.07403,-0.0107431
352.1,9.57607,7.10668,-0.0117979
354.4,9.64549,7.11066,-0.0147042
356.7,9.71523,7.13212,-0.0161204
359,9.78476,7.15541,-0.0189855
361.3,9.85412,7.16514,-0.0217241
363.6,9.92408,7.19135,-0.0231331
365.9,9.99334,7.2273,-0.0256852
368.2,10.0631,7.26752,-0.0270105
370.5,10.1329,7.30339,-0.0283308
372.8,10.2032,7.37697,-0.0310349
375.1,10.2732,7.42319,-0.035862
377.4,10.3435,7.50497,-0.037411
379.7,10.4136,7.5933,-0.041587
382,10.4839,7.72387,-0.0439676
384.3,10.5544,7.85052,-0.0462393
386.6,10.6252,8.02933,-0.0523732
388.9,10.6957,8.261,-0.0596461
391.2,10.7667,8.48243,-0.0636413
393.5,10.8376,8.71001,-0.069212
395.8,10.9095,9.00817,-0.0772716
398.1,10.9805,9.18315,-0.0896118
400.4,11.0516,9.33845,-0.101793
402.7,11.1227,9.49911,-0.116252
405,11.1945,9.84116,-0.129684
407.3,11.2657,10.0695,-0.147753
409.6,11.3374,10.3119,-0.165513
411.9,11.409,10.6431,-0.188337
414.2,11.4813,10.9999,-0.216834
416.5,11.5531,11.3616,-0.247372
418.8,11.6253,11.607,-0.279947
421.1,11.697,11.8808,-0.314093
423.4,11.7692,12.1821,-0.351039
425.7,11.8409,12.4186,-0.386835
428,11.9133,12.7494,-0.429955
430.3,11.9856,13.087,-0.477059
432.6,12.0582,13.4151,-0.528512
434.9,12.1304,13.798,-0.585629
437.2,12.2036,14.1795,-0.647267
439.5,12.2758,14.5535,-0.711522
441.8,12.3493,15.0561,-0.784933
444.1,12.4229,15.5053,-0.868802
446.4,12.4953,15.8495,-0.956364
448.7,12.569,16.2603,-1.05341
451,12.6434,17.1872,-1.15613
453.3,12.7171,17.4347,-1.26861
455.6,12.79,17.9108,-1.38972
457.9,12.8625,18.0356,-1.51776
460.2,12.9347,18.1502,-1.65865
462.5,13.0068,18.1384,-1.80153
464.8,13.0774,17.6844,-1.94106
467.1,13.1497,17.7816,-2.09222
469.4,13.2204,17.2169,-2.25288
471.7,13.2903,16.5945,-2.40724
474,13.3604,15.8707,-2.55339
476.3,13.4293,14.9596,-2.70271
478.6,13.4978,13.8513,-2.84131
480.9,13.5657,12.573,-2.97628
483.2,13.6333,11.1358,-3.09338
485.5,13.7007,9.68161,-3.20387
487.8,13.7679,8.24715,-3.3043
490.1,13.8356,6.92322,-3.38895
492.4,13.9037,5.67396,-3.47251
494.7,13.9716,4.62272,-3.54417
497,14.0417,3.73403,-3.59991
499.3,14.1117,2.99962,-3.64466
501.6,14.182,2.39403,-3.68165
503.9,14.2531,1.91895,-3.71485
506.2,14.3242,1.53638,-3.73904
508.5,14.3955,1.23448,-3.75452
510.8,14.4671,0.995586,-3.76936
513.1,14.5395,0.822079,-3.78035
515.4,14.6119,0.684273,-3.78583
517.7,14.6846,0.605992,-3.78878
520,14.7574,0.534641,-3.79146
522.3,14.83,0.468077,-3.7928
524.6,14.9025,0.430585,-3.79563
526.9,14.9762,0.435998,-3.79658
529.2,15.049,0.413232,-3.79564
531.5,15.1226,0.415171,-3.79554
533.8,15.1959,0.390764,-3.79695
536.1,15.2695,0.366104,-3.7969
538.4,15.3427,0.372396,-3.7986
540.7,15.4162,0.341281,-3.79728
543,15.4894,0.350033,-3.79728
545.3,15.5629,0.330805,-3.79468
547.6,15.6365,0.321525,-3.79442
549.9,15.7099,0.305999,-3.79484
552.2,15.7835,0.306418,-3.79845
554.5,15.8573,0.28621,-3.80123
556.8,15.9309,0.289282,-3.80264
559.1,16.0046,0.236126,-3.80387
561.4,16.0783,0.216821,-3.80387
563.7,16.1523,0.208757,-3.80381
566,16.226,0.190194,-3.8048
568.3,16.2996,0.178749,-3.80257
570.6,16.3737,0.165345,-3.80091
572.9,16.4479,0.143018,-3.8009
575.2,16.5219,0.143975,-3.80357
577.5,16.5954,0.126545,-3.80484
579.8,16.6696,0.105051,-3.80073
582.1,16.7436,0.119372,-3.79793
584.4,16.8178,0.090075,-3.80055
586.7,16.8921,0.0971063,-3.80057
589,16.9661,0.113769,-3.80189
591.3,17.04,0.082359,-3.80058
593.6,17.1146,0.0869042,-3.79925
595.9,17.1893,0.0875879,-3.79827
598.2,17.2637,0.0757603,-3.79794
600.5,17.338,0.0787133,-3.79556
602.8,17.4119,-0.00148848,-3.7976
605.1,17.4872,0.0613654,-3.79771
607.4,17.5618,0.0496284,-3.79573
609.7,17.6365,0.0535236,-3.79565
612,17.7109,-0.007535,-3.7964
614.3,17.7858,-0.117741,-3.7987
616.6,17.8607,-0.0145938,-3.80345
618.9,17.9357,-0.000583346,-3.80219
621.2,18.0104,-0.106989,-3.80091
623.5,18.0853,-0.154139,-3.80119
625.8,18.16,-0.202822,-3.80327
628.1,18.2352,-0.214654,-3.80671
630.4,18.3103,-0.231803,-3.80549
632.7,18.385,-0.253653,-3.80398
635,18.4603,-0.266555,-3.80519
637.3,18.5354,-0.266786,-3.80393
639.6,18.6104,-0.264174,-3.80267
641.9,18.6854,-0.249158,-3.79992
644.2,18.7606,-0.271945,-3.80123
646.5,18.8357,-0.275473,-3.80283
648.8,18.9109,-0.283561,-3.80469
651.1,18.9861,-0.279504,-3.80478
653.4,19.0609,-0.33094,-3.80651
655.7,19.1362,-0.406867,-3.80782
658,19.2113,-0.418393,-3.80913
660.3,19.2866,-0.375801,-3.80913
662.6,19.3618,-0.406651,-3.80787
664.9,19.4373,-0.425234,-3.80782
667.2,19.5126,-0.404596,-3.8078
669.5,19.5878,-0.243556,-3.80783
671.8,19.6632,-0.178966,-3.8072
674.1,19.7388,-0.175242,-3.811
676.4,19.8139,-0.265865,-3.81113
678.7,19.8892,-0.188998,-3.81
681,19.9649,-0.180906,-3.80969
683.3,20.0401,-0.1874,-3.81103
685.6,20.1156,-0.193159,-3.81231
687.9,20.1911,-0.224771,-3.81016
690.2,20.2666,-0.227347,-3.80837
692.5,20.3422,-0.220885,-3.8109
694.8,20.4177,-0.24074,-3.81099
697.1,20.4935,-0.241138,-3.81143
699.4,20.5689,-0.244526,-3.81223
701.7,20.6447,-0.208075,-3.81221
704,20.7204,-0.241934,-3.81221
706.3,20.7962,-0.254571,-3.81267
708.6,20.8719,-0.267924,-3.81418
710.9,20.9475,-0.271967,-3.81518
713.2,21.0231,-0.301682,-3.81451
715.5,21.0988,-0.272689,-3.81369
717.8,21.1745,-0.257139,-3.81517
720.1,21.2504,-0.283012,-3.81504
722.4,21.3262,-0.292976,-3.81219
724.7,21.4015,-0.328308,-3.81486
727,21.4773,-0.478033,-3.81721
729.3,21.553,-0.534935,-3.81396
731.6,21.6294,-0.567937,-3.81452
733.9,21.7054,-0.56797,-3.81731
736.2,21.7814,-0.617351,-3.81986
738.5,21.8577,-0.601287,-3.81861
740,21.9095,-0.599674,-3.81825