File: 01_Data/Helmet_Buckle/STA/N2/30K_min/Helmet_Buckle_STA_N2_30KData_250228_R1.csv
Temp./C,Time/min,DSC/(mW/mg),Mass loss/mg
60.0,0.0,1.50831,-0.00490941
62.3,0.138753,1.75266,-0.00437226
64.6,0.265983,1.97229,-0.00517436
66.9,0.384301,2.19289,-0.00482467
69.2,0.496935,2.38593,-0.00414454
71.5,0.604323,2.54145,-0.00679561
73.8,0.707454,2.60152,-0.00545794
76.1,0.807794,2.59568,-0.00647146
78.4,0.90527,2.6061,-0.00611187
80.7,1.00072,2.60675,-0.00599594
83,1.09454,2.65598,-0.00606031
85.3,1.18664,2.70022,-0.00692972
87.6,1.27737,2.76974,-0.00725185
89.9,1.36695,2.85155,-0.0081955
92.2,1.45434,2.92361,-0.0104803
94.5,1.54213,2.99127,-0.00743698
96.8,1.62801,3.05861,-0.00650136
99.1,1.71319,3.13213,-0.00710424
101.4,1.79771,3.19771,-0.00819001
103.7,1.8815,3.25908,-0.00750644
106,1.96465,3.33014,-0.00828809
108.3,2.04721,3.39079,-0.00751849
110.6,2.1292,3.45482,-0.00846408
112.9,2.21105,3.50795,-0.00857949
115.2,2.29228,3.57781,-0.00850628
117.5,2.37303,3.62953,-0.00763772
119.8,2.45378,3.69311,-0.00725376
122.1,2.53352,3.74657,-0.00608912
124.4,2.61269,3.80732,-0.0076666
126.7,2.69181,3.86568,-0.00724049
129,2.77012,3.92581,-0.00768306
131.3,2.84752,3.9703,-0.00723615
133.6,2.9253,4.02765,-0.00727139
135.9,3.00195,4.08109,-0.00730533
138.2,3.07815,4.12475,-0.00713984
140.5,3.15387,4.18337,-0.00582241
142.8,3.22971,4.23074,-0.00713375
145.1,3.30484,4.29074,-0.00581666
147.4,3.37953,4.33803,-0.00515531
149.7,3.45434,4.37805,-0.0055828
152,3.5283,4.43443,-0.00582
154.3,3.60171,4.46882,-0.00582003
156.6,3.67554,4.50792,-0.00501585
158.9,3.74898,4.54592,-0.00582031
161.2,3.82206,4.59364,-0.00584056
163.5,3.8951,4.64773,-0.00602198
165.8,3.96767,4.68276,-0.00712994
168.1,4.03991,4.7149,-0.00713
170.4,4.11244,4.7481,-0.00713
172.7,4.18484,4.76861,-0.00713
175,4.25649,4.80099,-0.00712311
177.3,4.32824,4.84047,-0.00713983
179.6,4.39954,4.87502,-0.00713976
181.9,4.47098,4.9169,-0.00582987
184.2,4.54213,4.94528,-0.00581999
186.5,4.61287,4.9814,-0.00603261
188.8,4.68306,5.01218,-0.00604145
191.1,4.7536,5.04218,-0.00686175
193.4,4.82376,5.07813,-0.00581491
195.7,4.89387,5.11881,-0.00582014
198,4.96374,5.1472,-0.00710785
200.3,5.03376,5.18609,-0.00714
202.6,5.10335,5.20719,-0.00714
204.9,5.17298,5.24443,-0.00713996
207.2,5.24266,5.28392,-0.00677594
209.5,5.31188,5.33382,-0.00681
211.8,5.38139,5.37775,-0.00681003
214.1,5.45069,5.43146,-0.00578565
216.4,5.51971,5.47454,-0.00581693
218.7,5.58864,5.53003,-0.00713919
221,5.65789,5.57702,-0.00582077
223.3,5.72736,5.63734,-0.00582096
225.6,5.79648,5.68481,-0.00712861
227.9,5.86533,5.74083,-0.00717022
230.2,5.93416,5.81164,-0.00674905
232.5,6.0031,5.8637,-0.00779007
234.8,6.0717,5.93592,-0.00779
237.1,6.14062,6.02019,-0.00778999
239.4,6.20941,6.12678,-0.00692338
241.7,6.27772,6.29727,-0.00679808
244,6.34767,6.56856,-0.00746171
246.3,6.41758,6.99552,-0.00746
248.6,6.48913,7.7563,-0.00746001
250.9,6.56168,8.98819,-0.00747958
253.2,6.63563,10.5819,-0.00647038
255.5,6.70996,12.2742,-0.00647452
257.8,6.78456,13.9742,-0.00681266
260.1,6.85812,15.4097,-0.00812011
262.4,6.92004,13.5952,-0.00812097
264.7,6.98007,10.9975,-0.00947145
267,7.04171,9.20913,-0.00912003
269.3,7.10585,7.98008,-0.00911819
271.6,7.17093,7.16845,-0.00944947
273.9,7.23669,6.64274,-0.008451
276.2,7.30352,6.29404,-0.00813549
278.5,7.37104,6.07381,-0.00812999
280.8,7.43811,5.92228,-0.00812996
283.1,7.50588,5.82768,-0.00831159
285.4,7.57368,5.76451,-0.00878962
287.7,7.64178,5.72506,-0.00941903
290,7.70941,5.70374,-0.00845039
292.3,7.77748,5.68136,-0.00910495
294.6,7.84568,5.67833,-0.00910984
296.9,7.91373,5.67141,-0.00781458
299.2,7.98193,5.6542,-0.00807705
301.5,8.05053,5.66018,-0.00869766
303.8,8.11836,5.65571,-0.0084493
306.1,8.18655,5.65758,-0.00978655
308.4,8.25462,5.65643,-0.0110899
310.7,8.3229,5.64979,-0.0111226
313,8.39103,5.64665,-0.00976983
315.3,8.45867,5.64502,-0.0110518
317.6,8.5279,5.65084,-0.00978442
319.9,8.59622,5.6428,-0.0107175
322.2,8.66454,5.64057,-0.0110822
324.5,8.733,5.64174,-0.0123448
326.8,8.80138,5.65249,-0.0123307
329.1,8.86988,5.65524,-0.0111223
331.4,8.93892,5.65792,-0.0124
333.7,9.00657,5.67749,-0.012399
336,9.0761,5.66638,-0.0124436
338.3,9.14457,5.66905,-0.0128327
340.6,9.21354,5.67594,-0.0137341
342.9,9.28229,5.69353,-0.0143133
345.2,9.35117,5.70467,-0.0137303
347.5,9.42018,5.7207,-0.0163607
349.8,9.48883,5.72835,-0.0176789
352.1,9.55814,5.74561,-0.0183974
354.4,9.62721,5.76916,-0.0183355
356.7,9.69615,5.80313,-0.0202988
359,9.76488,5.83036,-0.0216375
361.3,9.8343,5.87514,-0.023053
363.6,9.90456,5.92568,-0.025408
365.9,9.97388,5.9698,-0.0280997
368.2,10.0437,6.03514,-0.0296235
370.5,10.1129,6.09001,-0.0313961
372.8,10.1827,6.16335,-0.0339282
375.1,10.2524,6.27661,-0.0371714
377.4,10.3226,6.39403,-0.0406936
379.7,10.3927,6.5382,-0.0451777
382,10.4629,6.71358,-0.0495505
384.3,10.5332,6.91257,-0.0549146
386.6,10.6036,7.10005,-0.0588097
388.9,10.6741,7.29589,-0.0667818
391.2,10.7446,7.51463,-0.0759358
393.5,10.8155,7.80849,-0.0856709
395.8,10.8864,8.09031,-0.0938992
398.1,10.9574,8.30075,-0.107803
400.4,11.0277,8.49109,-0.120128
402.7,11.0989,8.76053,-0.136641
405,11.1706,9.17787,-0.155702
407.3,11.2417,9.4552,-0.173298
409.6,11.3129,9.71089,-0.195139
411.9,11.3842,9.95277,-0.218074
414.2,11.4561,10.4143,-0.243039
416.5,11.5268,10.7172,-0.274735
418.8,11.5991,11.0098,-0.309639
421.1,11.6709,11.3401,-0.348163
423.4,11.7425,11.6731,-0.389792
425.7,11.8144,12.0244,-0.433368
428,11.8863,12.3628,-0.482833
430.3,11.958,12.6499,-0.533522
432.6,12.0295,12.8661,-0.590343
434.9,12.1017,13.1841,-0.650533
437.2,12.1742,13.6534,-0.71492
439.5,12.246,13.8832,-0.78193
441.8,12.318,14.2594,-0.852021
444.1,12.3905,14.6252,-0.936344
446.4,12.4635,15.0604,-1.02941
448.7,12.5358,15.4422,-1.12487
451,12.6076,15.6542,-1.22126
453.3,12.6803,16.0095,-1.32862
455.6,12.7517,15.9181,-1.44113
457.9,12.8239,16.075,-1.55983
460.2,12.8963,16.3459,-1.68402
462.5,12.9671,16.3091,-1.81425
464.8,13.0398,16.5061,-1.95489
467.1,13.1108,16.2935,-2.10148
469.4,13.1821,16.1699,-2.24782
471.7,13.2524,15.722,-2.39312
474,13.3218,15.0214,-2.53865
476.3,13.3909,14.1754,-2.68383
478.6,13.4591,13.1048,-2.81602
480.9,13.5273,12.0106,-2.94253
483.2,13.5949,10.7102,-3.06513
485.5,13.6622,9.37734,-3.17677
487.8,13.7295,8.02381,-3.27692
490.1,13.7959,6.6143,-3.37063
492.4,13.8643,5.34306,-3.45336
494.7,13.9319,4.22541,-3.52096
497,14.0005,3.29509,-3.57972
499.3,14.0701,2.53677,-3.6317
501.6,14.14,1.91238,-3.67267
503.9,14.2104,1.41015,-3.7072
506.2,14.2814,1.00064,-3.73535
508.5,14.3524,0.66245,-3.75695
510.8,14.4236,0.404705,-3.7748
513.1,14.4955,0.180677,-3.78631
515.4,14.5671,0.0127778,-3.79593
517.7,14.6394,-0.103451,-3.80171
520,14.7118,-0.174895,-3.80438
522.3,14.7843,-0.229092,-3.80747
524.6,14.857,-0.289132,-3.80981
526.9,14.9298,-0.326735,-3.80979
529.2,15.0025,-0.340925,-3.8111
531.5,15.0754,-0.362106,-3.81112
533.8,15.1482,-0.368827,-3.81242
536.1,15.2212,-0.378178,-3.81246
538.4,15.2943,-0.387263,-3.81304
540.7,15.3672,-0.39691,-3.80993
543,15.4406,-0.415885,-3.81069
545.3,15.5136,-0.425718,-3.8169
547.6,15.5869,-0.433626,-3.81693
549.9,15.6603,-0.442593,-3.81701
552.2,15.7335,-0.446312,-3.81528
554.5,15.8067,-0.451713,-3.81528
556.8,15.8803,-0.461106,-3.81527
559.1,15.9541,-0.47085,-3.81561
561.4,16.0272,-0.474991,-3.81594
563.7,16.1007,-0.492961,-3.81594
566,16.1741,-0.483528,-3.81596
568.3,16.2477,-0.502196,-3.81693
570.6,16.3215,-0.507834,-3.81693
572.9,16.395,-0.51264,-3.81633
575.2,16.4686,-0.516881,-3.81663
577.5,16.5423,-0.515826,-3.8166
579.8,16.6163,-0.536264,-3.8166
582.1,16.6899,-0.535289,-3.81595
584.4,16.7638,-0.539952,-3.8165
586.7,16.8375,-0.533479,-3.81687
589,16.9119,-0.535406,-3.81716
591.3,16.9855,-0.546933,-3.81751
593.6,17.0596,-0.547032,-3.81616
595.9,17.1338,-0.561102,-3.81548
598.2,17.2082,-0.537311,-3.81418
600.5,17.2819,-0.551747,-3.81498
602.8,17.3561,-0.54961,-3.8155
605.1,17.4302,-0.557933,-3.81549
607.4,17.5048,-0.56269,-3.81682
609.7,17.5791,-0.578258,-3.81688
612,17.6534,-0.574615,-3.81814
614.3,17.7277,-0.58965,-3.81682
616.6,17.8023,-0.588578,-3.81809
618.9,17.876,-0.602759,-3.81808
621.2,17.9505,-0.601931,-3.81677
623.5,18.0256,-0.610449,-3.81684
625.8,18.1003,-0.623117,-3.81808
628.1,18.1747,-0.641099,-3.8183
630.4,18.2491,-0.642711,-3.81879
632.7,18.3238,-0.648562,-3.81879
635,18.3987,-0.655341,-3.81879
637.3,18.4731,-0.662484,-3.81918
639.6,18.5481,-0.663887,-3.8205
641.9,18.6228,-0.673502,-3.82077
644.2,18.6978,-0.681588,-3.82077
646.5,18.7724,-0.69741,-3.82077
648.8,18.8472,-0.712434,-3.82175
651.1,18.9219,-0.73381,-3.82041
653.4,18.9973,-0.733178,-3.81911
655.7,19.072,-0.738807,-3.81944
658,19.1468,-0.748972,-3.82043
660.3,19.222,-0.763661,-3.82175
662.6,19.297,-0.763351,-3.82175
664.9,19.3722,-0.775876,-3.82273
667.2,19.4472,-0.774916,-3.82176
669.5,19.5221,-0.789944,-3.82125
671.8,19.5975,-0.792524,-3.82176
674.1,19.6727,-0.793383,-3.82176
676.4,19.7478,-0.807928,-3.82441
678.7,19.823,-0.810218,-3.82448
681,19.8986,-0.808567,-3.82571
683.3,19.9738,-0.820203,-3.82574
685.6,20.049,-0.824242,-3.82439
687.9,20.1241,-0.83471,-3.82571
690.2,20.1995,-0.846775,-3.82571
692.5,20.2752,-0.851429,-3.82603
694.8,20.3509,-0.839108,-3.82588
697.1,20.4261,-0.850413,-3.82702
699.4,20.5014,-0.869263,-3.8257
701.7,20.5773,-0.874333,-3.8257
704,20.6525,-0.879841,-3.8257
706.3,20.7283,-0.898815,-3.82637
708.6,20.8039,-0.892503,-3.82571
710.9,20.8794,-0.911476,-3.82643
713.2,20.9551,-0.924685,-3.82703
715.5,21.0302,-0.946587,-3.82636
717.8,21.1066,-0.953703,-3.82637
720.1,21.1824,-0.968958,-3.82776
722.4,21.2583,-0.958652,-3.82834
724.7,21.3341,-0.98512,-3.82839
727,21.4099,-0.976555,-3.82697
729.3,21.4859,-0.956767,-3.82836
731.6,21.5615,-0.943052,-3.829
733.9,21.6377,-0.931754,-3.829
736.2,21.7118,-0.701895,-3.82999
738.5,21.7886,-0.586087,-3.82961
740,21.8398,-0.76518,-3.82868