File: 01_Data/NFPA_1981-2019_SCBA_Lens/STA/N2/30K_min/NFPA_1981-2019_SCBA_Lens_STA_N2_30KData_250910_R3.csv
Temp./C,Time/min,DSC/(mW/mg),Mass loss/mg
40,0,1.11E+00,-8.97E-03
42.6,0.15975,1.33E+00,-9.44E-03
45.2,0.302587,1.49E+00,-8.35E-03
47.8,0.438251,1.63E+00,-7.98E-03
50.4,0.564501,1.75E+00,-6.89E-03
53,0.685716,1.86E+00,-5.88E-03
55.6,0.802454,1.95E+00,-3.96E-03
58.2,0.914381,2.04E+00,-3.07E-03
60.8,1.02436,2.12E+00,-2.22E-03
63.4,1.13226,2.20E+00,-1.85E-03
66,1.2382,2.26E+00,-2.73E-03
68.6,1.34195,2.32E+00,-1.73E-03
71.2,1.44462,2.39E+00,-5.30E-04
73.8,1.54561,2.43E+00,-1.93E-03
76.4,1.64575,2.49E+00,-9.93E-04
79,1.7444,2.54E+00,-2.82E-04
81.6,1.84256,2.61E+00,-1.20E-03
84.2,1.93988,2.66E+00,-6.84E-04
86.8,2.03439,2.71E+00,8.70E-04
89.4,2.12991,2.75E+00,-7.98E-04
92,2.22359,2.78E+00,3.95E-04
94.6,2.31634,2.81E+00,-1.29E-04
97.2,2.40854,2.83E+00,-5.91E-04
99.8,2.49946,2.86E+00,6.12E-05
102.4,2.59028,2.90E+00,6.13E-04
105,2.68065,2.96E+00,-3.19E-04
107.6,2.7704,2.98E+00,4.53E-05
110.2,2.85939,3.01E+00,1.68E-03
112.8,2.94826,3.06E+00,1.78E-03
115.4,3.03671,3.11E+00,1.79E-03
118,3.12537,3.15E+00,1.73E-03
120.6,3.21231,3.21E+00,1.50E-03
123.2,3.29983,3.25E+00,1.90E-03
125.8,3.38648,3.29E+00,1.98E-03
128.4,3.47251,3.33E+00,2.74E-03
131,3.55817,3.38E+00,2.10E-03
133.6,3.64321,3.42E+00,1.31E-03
136.2,3.72855,3.45E+00,1.89E-03
138.8,3.81304,3.49E+00,1.05E-03
141.4,3.89712,3.53E+00,2.02E-04
144,3.98107,3.56E+00,5.49E-04
146.6,4.06434,3.60E+00,8.74E-04
149.2,4.14677,3.64E+00,1.20E-03
151.8,4.22931,3.67E+00,1.54E-03
154.4,4.31142,3.71E+00,1.84E-03
157,4.39354,3.75E+00,2.12E-03
159.6,4.47569,3.78E+00,2.15E-03
162.2,4.55654,3.82E+00,1.09E-03
164.8,4.63845,3.86E+00,2.45E-03
167.4,4.71986,3.88E+00,1.19E-03
170,4.80092,3.92E+00,1.36E-03
172.6,4.88177,3.95E+00,1.44E-03
175.2,4.96228,3.98E+00,1.87E-04
177.8,5.04217,4.02E+00,1.97E-04
180.4,5.1228,4.05E+00,1.52E-03
183,5.20223,4.07E+00,1.42E-03
185.6,5.28209,4.11E+00,1.06E-04
188.2,5.36157,4.13E+00,6.31E-05
190.8,5.44066,4.16E+00,1.34E-03
193.4,5.51926,4.20E+00,1.32E-03
196,5.59831,4.24E+00,1.30E-03
198.6,5.67722,4.30E+00,1.25E-03
201.2,5.75547,4.36E+00,1.16E-03
203.8,5.83413,4.48E+00,1.06E-03
206.4,5.91313,4.61E+00,1.60E-03
209,5.99123,4.73E+00,1.49E-03
211.6,6.06943,4.78E+00,1.38E-03
214.2,6.14691,4.83E+00,1.29E-03
216.8,6.22564,4.86E+00,1.17E-03
219.4,6.3035,4.88E+00,1.04E-03
222,6.38093,4.90E+00,1.22E-03
224.6,6.45852,4.92E+00,1.03E-03
227.2,6.53661,4.94E+00,-1.11E-04
229.8,6.61403,4.97E+00,-2.68E-04
232.4,6.69159,4.99E+00,8.69E-04
235,6.76923,5.03E+00,7.23E-04
237.6,6.84651,5.06E+00,5.54E-04
240.2,6.92375,5.11E+00,1.41E-03
242.8,7.00143,5.16E+00,1.58E-03
245.4,7.07824,5.22E+00,1.44E-03
248,7.15581,5.24E+00,1.30E-03
250.6,7.23287,5.26E+00,2.39E-03
253.2,7.31001,5.27E+00,2.26E-03
255.8,7.38725,5.30E+00,2.13E-03
258.4,7.46392,5.31E+00,2.00E-03
261,7.54111,5.34E+00,8.46E-04
263.6,7.61816,5.36E+00,2.08E-03
266.2,7.69526,5.38E+00,1.77E-03
268.8,7.77213,5.41E+00,2.83E-03
271.4,7.8491,5.44E+00,2.61E-03
274,7.92608,5.44E+00,3.04E-03
276.6,8.00295,5.48E+00,3.47E-03
279.2,8.08013,5.50E+00,3.25E-03
281.8,8.15732,5.51E+00,3.05E-03
284.4,8.23427,5.54E+00,2.83E-03
287,8.31149,5.56E+00,3.34E-03
289.6,8.38845,5.56E+00,3.64E-03
292.2,8.46598,5.58E+00,3.41E-03
294.8,8.54297,5.58E+00,3.18E-03
297.4,8.62015,5.60E+00,2.93E-03
300,8.6973,5.61E+00,4.00E-03
302.6,8.77473,5.61E+00,3.76E-03
305.2,8.85183,5.61E+00,4.82E-03
307.8,8.92904,5.64E+00,4.58E-03
310.4,9.00629,5.65E+00,3.29E-03
313,9.08334,5.66E+00,3.02E-03
315.6,9.1609,5.68E+00,4.07E-03
318.2,9.23839,5.68E+00,3.83E-03
320.8,9.31571,5.70E+00,4.89E-03
323.4,9.39329,5.70E+00,4.64E-03
326,9.4708,5.71E+00,4.39E-03
328.6,9.54823,5.72E+00,4.14E-03
331.2,9.62595,5.73E+00,3.87E-03
333.8,9.70364,5.74E+00,3.57E-03
336.4,9.78105,5.74E+00,3.26E-03
339,9.85917,5.75E+00,4.35E-03
341.6,9.93729,5.76E+00,4.08E-03
344.2,10.0151,5.76E+00,3.75E-03
346.8,10.0932,5.76E+00,3.38E-03
349.4,10.1716,5.76E+00,4.32E-03
352,10.2497,5.76E+00,3.95E-03
354.6,10.3276,5.76E+00,3.53E-03
357.2,10.4059,5.75E+00,3.07E-03
359.8,10.4838,5.74E+00,2.98E-03
362.4,10.5628,5.74E+00,2.57E-03
365,10.6413,5.74E+00,2.12E-03
367.6,10.7198,5.74E+00,2.55E-03
370.2,10.7986,5.73E+00,2.22E-03
372.8,10.8772,5.74E+00,1.80E-03
375.4,10.956,5.75E+00,1.36E-03
378,11.035,5.74E+00,8.81E-04
380.6,11.114,5.74E+00,3.77E-04
383.2,11.1924,5.75E+00,1.12E-03
385.8,11.2717,5.75E+00,6.13E-04
388.4,11.351,5.75E+00,-6.30E-04
391,11.4302,5.74E+00,7.82E-05
393.6,11.509,5.74E+00,-5.65E-04
396.2,11.5885,5.74E+00,-1.26E-03
398.8,11.6677,5.73E+00,-5.64E-04
401.4,11.7475,5.73E+00,2.20E-05
404,11.8268,5.73E+00,-6.94E-04
406.6,11.9068,5.73E+00,-1.54E-03
409.2,11.9861,5.74E+00,-2.37E-03
411.8,12.066,5.74E+00,-4.59E-03
414.4,12.1461,5.74E+00,-7.07E-03
417,12.2258,5.74E+00,-3.05E-03
419.6,12.3057,5.75E+00,-2.84E-03
422.2,12.3858,5.76E+00,-3.98E-03
424.8,12.4662,5.77E+00,-5.00E-03
427.4,12.5458,5.76E+00,-5.37E-03
430,12.6262,5.77E+00,-8.29E-03
432.6,12.7067,5.77E+00,-8.79E-03
435.2,12.7866,5.78E+00,-1.10E-02
437.8,12.8671,5.79E+00,-1.34E-02
440.4,12.9477,5.80E+00,-1.64E-02
443,13.0279,5.80E+00,-1.82E-02
445.6,13.1086,5.80E+00,-2.18E-02
448.2,13.1894,5.80E+00,-2.61E-02
450.8,13.2701,5.80E+00,-3.09E-02
453.4,13.3507,5.82E+00,-3.50E-02
456,13.4314,5.85E+00,-4.15E-02
458.6,13.5122,5.86E+00,-4.72E-02
461.2,13.5932,5.87E+00,-5.65E-02
463.8,13.674,5.86E+00,-6.44E-02
466.4,13.7548,5.83E+00,-7.45E-02
469,13.8365,5.91E+00,-8.70E-02
471.6,13.9177,5.96E+00,-0.10073
474.2,13.9991,6.05E+00,-0.11681
476.8,14.0808,6.09E+00,-0.13488
479.4,14.1622,6.18E+00,-0.15688
482,14.2438,6.29E+00,-0.18086
484.6,14.3259,6.45E+00,-0.21156
487.2,14.4077,6.59E+00,-0.24754
489.8,14.4899,6.78E+00,-0.28856
492.4,14.5722,7.03E+00,-0.33986
495,14.6542,7.24E+00,-0.39852
497.6,14.7367,7.44E+00,-0.46427
500.2,14.8188,7.66E+00,-0.54217
502.8,14.9016,7.91E+00,-0.63232
505.4,14.9834,8.06E+00,-0.73404
508,15.0667,8.37E+00,-0.84688
510.6,15.1492,8.56E+00,-0.97777
513.2,15.2322,8.87E+00,-1.12354
515.8,15.3145,8.98E+00,-1.28439
518.4,15.397,9.06E+00,-1.46216
521,15.4794,9.18E+00,-1.65242
523.6,15.5621,9.31E+00,-1.85467
526.2,15.6443,9.29E+00,-2.06006
528.8,15.7263,8.96E+00,-2.25645
531.4,15.8064,8.11E+00,-2.42728
534,15.8851,6.67E+00,-2.56246
536.6,15.963,5.04E+00,-2.66017
539.2,16.041,3.62E+00,-2.74145
541.8,16.12,2.66E+00,-2.79977
544.4,16.2003,2.06E+00,-2.83421
547,16.2817,1.74E+00,-2.85555
549.6,16.3637,1.64E+00,-2.88408
552.2,16.4458,1.62E+00,-2.91702
554.8,16.5282,1.65E+00,-2.94116
557.4,16.6111,1.66E+00,-2.98876
560,16.6937,1.69E+00,-3.03914
562.6,16.7769,1.71E+00,-3.09358
565.2,16.8606,1.69E+00,-3.13905
567.8,16.9445,1.68E+00,-3.17697
570.4,17.0281,1.68E+00,-3.21697
573,17.1117,1.67E+00,-3.24642
575.6,17.1954,1.66E+00,-3.25922
578.2,17.2791,1.65E+00,-3.26577
580.8,17.3628,1.64E+00,-3.26948
583.4,17.4468,1.62E+00,-3.27037
586,17.5304,1.63E+00,-3.2724
588.6,17.614,1.49E+00,-3.27495
591.2,17.6967,8.81E-01,-3.27789
593.8,17.7798,6.42E-01,-3.28259
596.4,17.8634,4.48E-01,-3.28486
599,17.947,3.65E-01,-3.28862
601.6,18.0315,3.21E-01,-3.29246
604.2,18.1158,3.58E-01,-3.29494
606.8,18.1999,3.33E-01,-3.29978
609.4,18.2843,3.03E-01,-3.30186
612,18.3687,3.01E-01,-3.30373
614.6,18.4531,3.00E-01,-3.30686
617.2,18.5378,2.67E-01,-3.31019
619.8,18.6223,2.95E-01,-3.31405
622.4,18.7071,2.94E-01,-3.31594
625,18.7915,3.18E-01,-3.31872
627.6,18.8767,4.66E-01,-3.32147
630.2,18.9613,4.55E-01,-3.32383
632.8,19.0463,3.71E-01,-3.3253
635.4,19.1309,4.27E-01,-3.32778
638,19.2156,3.47E-01,-3.3304
640.6,19.3007,3.21E-01,-3.333
643.2,19.3857,3.02E-01,-3.3343
645.8,19.4712,4.80E-01,-3.33686
648.4,19.556,5.22E-01,-3.33933
651,19.6408,4.78E-01,-3.3404
653.6,19.7259,4.16E-01,-3.34268
656.2,19.8112,3.60E-01,-3.34488
658.8,19.8961,3.30E-01,-3.34703
661.4,19.9812,2.94E-01,-3.34906
664,20.0665,2.83E-01,-3.35096
666.6,20.1513,2.48E-01,-3.35234
669.2,20.237,2.32E-01,-3.35326
671.8,20.322,2.14E-01,-3.3549
674.4,20.4076,3.14E-01,-3.35516
677,20.4929,3.58E-01,-3.3567
679.6,20.5783,3.67E-01,-3.35802
682.2,20.6637,3.35E-01,-3.35924
684.8,20.7487,2.89E-01,-3.35961
687.4,20.834,2.64E-01,-3.36084
690,20.9194,2.34E-01,-3.36113
692.6,21.0044,1.77E-01,-3.36194
695.2,21.0896,1.19E-01,-3.36309
697.8,21.1751,6.31E-02,-3.3642
700.4,21.26,-9.73E-04,-3.3653
703,21.3451,-5.21E-02,-3.3664
705.6,21.4303,-8.67E-02,-3.36746
708.2,21.5155,-1.50E-01,-3.36762
710.8,21.6011,-2.18E-01,-3.36808
713.4,21.6863,-2.66E-01,-3.36774
716,21.7716,-3.05E-01,-3.3686
718.6,21.8563,-3.56E-01,-3.36948
721.2,21.9423,-4.06E-01,-3.36912
723.8,22.0278,-4.60E-01,-3.36992
726.4,22.1133,-4.75E-01,-3.37081
729,22.1989,-5.28E-01,-3.37169
731.6,22.2845,-5.69E-01,-3.37256
734.2,22.3702,-6.15E-01,-3.37208
736.8,22.4558,-6.53E-01,-3.3729
739.4,22.5414,-7.02E-01,-3.37367
742,22.6271,-7.42E-01,-3.37404
744.6,22.7125,-7.79E-01,-3.37378
747.2,22.7984,-8.31E-01,-3.37306
749.8,22.8841,-8.86E-01,-3.3739
752.4,22.9699,-9.39E-01,-3.37465
755,23.0556,-9.84E-01,-3.37541
757.6,23.1414,-9.90E-01,-3.37557
760.2,23.227,-1.03E+00,-3.3743
762.8,23.3133,-1.06E+00,-3.37403
765.4,23.3989,-1.08E+00,-3.37476
768,23.4848,-1.12E+00,-3.37544
770.6,23.5704,-1.13E+00,-3.37613
773.2,23.6563,-1.15E+00,-3.37648
775.8,23.7423,-1.19E+00,-3.37711
778.4,23.8285,-1.21E+00,-3.37824
781,23.9142,-1.22E+00,-3.37771
783.6,24,-1.24E+00,-3.37717
786.2,24.0864,-1.25E+00,-3.37667
788.8,24.1729,-1.28E+00,-3.37762
790,24.2126,-1.29E+00,-3.37821