File: 01_Data/NFPA_1981-2019_SCBA_Lens/STA/N2/30K_min/NFPA_1981-2019_SCBA_Lens_STA_N2_30KData_250908_R2.csv
Temp./C,Time/min,DSC/(mW/mg),Mass loss/mg
40,0,9.92E-01,-1.41E-02
42.6,0.159517,1.19E+00,-1.66E-02
45.2,0.305836,1.36E+00,-1.77E-02
47.8,0.440557,1.49E+00,-1.74E-02
50.4,0.567298,1.61E+00,-1.51E-02
53,0.689191,1.72E+00,-1.41E-02
55.6,0.806299,1.81E+00,-1.20E-02
58.2,0.91998,1.90E+00,-8.56E-03
60.8,1.03016,1.99E+00,-7.07E-03
63.4,1.13817,2.07E+00,-6.51E-03
66,1.244,2.13E+00,-4.47E-03
68.6,1.34776,2.19E+00,-3.68E-03
71.2,1.45064,2.25E+00,-1.83E-03
73.8,1.55168,2.31E+00,-7.11E-04
76.4,1.65206,2.37E+00,-1.81E-03
79,1.75203,2.42E+00,-6.03E-04
81.6,1.85002,2.49E+00,3.08E-03
84.2,1.94734,2.55E+00,2.48E-03
86.8,2.04365,2.60E+00,3.02E-03
89.4,2.13801,2.64E+00,1.98E-03
92,2.23149,2.69E+00,3.46E-03
94.6,2.32488,2.73E+00,3.78E-03
97.2,2.41646,2.76E+00,4.38E-03
99.8,2.50775,2.78E+00,5.22E-03
102.4,2.59827,2.82E+00,5.83E-03
105,2.68917,2.88E+00,3.26E-03
107.6,2.77821,2.92E+00,4.96E-03
110.2,2.86755,2.96E+00,5.25E-03
112.8,2.95637,3.00E+00,5.40E-03
115.4,3.04499,3.05E+00,5.46E-03
118,3.13288,3.10E+00,5.47E-03
120.6,3.22077,3.13E+00,5.32E-03
123.2,3.30786,3.20E+00,5.06E-03
125.8,3.39445,3.23E+00,4.76E-03
128.4,3.48087,3.28E+00,4.15E-03
131,3.56578,3.32E+00,6.31E-03
133.6,3.65081,3.38E+00,7.09E-03
136.2,3.73511,3.43E+00,6.48E-03
138.8,3.81942,3.46E+00,4.09E-03
141.4,3.90318,3.50E+00,5.84E-03
144,3.98663,3.54E+00,6.60E-03
146.6,4.06905,3.58E+00,6.88E-03
149.2,4.15181,3.63E+00,6.15E-03
151.8,4.2339,3.66E+00,6.55E-03
154.4,4.31546,3.70E+00,6.91E-03
157,4.39723,3.73E+00,6.90E-03
159.6,4.47844,3.77E+00,6.17E-03
162.2,4.56012,3.81E+00,4.85E-03
164.8,4.64117,3.86E+00,6.45E-03
167.4,4.72191,3.88E+00,6.63E-03
170,4.80233,3.92E+00,6.79E-03
172.6,4.88284,3.96E+00,6.92E-03
175.2,4.96335,3.99E+00,6.99E-03
177.8,5.0433,4.04E+00,7.06E-03
180.4,5.12297,4.05E+00,7.13E-03
183,5.20239,4.09E+00,7.11E-03
185.6,5.28168,4.13E+00,7.08E-03
188.2,5.3606,4.16E+00,8.41E-03
190.8,5.43982,4.19E+00,8.40E-03
193.4,5.51833,4.23E+00,6.98E-03
196,5.59709,4.28E+00,6.93E-03
198.6,5.67533,4.34E+00,6.88E-03
201.2,5.75362,4.41E+00,5.44E-03
203.8,5.83256,4.52E+00,6.10E-03
206.4,5.91116,4.67E+00,6.59E-03
209,5.98908,4.79E+00,6.44E-03
211.6,6.06723,4.85E+00,6.28E-03
214.2,6.14493,4.90E+00,6.12E-03
216.8,6.22276,4.93E+00,5.98E-03
219.4,6.30101,4.96E+00,5.87E-03
222,6.37835,4.98E+00,7.02E-03
224.6,6.45542,5.01E+00,6.90E-03
227.2,6.53314,5.03E+00,5.47E-03
229.8,6.61057,5.06E+00,6.64E-03
232.4,6.68875,5.08E+00,6.45E-03
235,6.76584,5.12E+00,6.33E-03
237.6,6.84358,5.15E+00,6.18E-03
240.2,6.92095,5.20E+00,5.97E-03
242.8,6.99815,5.24E+00,5.77E-03
245.4,7.07542,5.26E+00,5.79E-03
248,7.15252,5.30E+00,6.72E-03
250.6,7.23013,5.31E+00,5.86E-03
253.2,7.30703,5.33E+00,5.68E-03
255.8,7.38424,5.35E+00,5.49E-03
258.4,7.46135,5.37E+00,6.61E-03
261,7.53817,5.38E+00,5.33E-03
263.6,7.61551,5.41E+00,5.16E-03
266.2,7.69168,5.43E+00,6.29E-03
268.8,7.76943,5.44E+00,6.04E-03
271.4,7.84638,5.46E+00,5.80E-03
274,7.92352,5.47E+00,4.34E-03
276.6,8.00057,5.50E+00,6.10E-03
279.2,8.07768,5.51E+00,6.53E-03
281.8,8.15462,5.53E+00,6.32E-03
284.4,8.23206,5.53E+00,6.14E-03
287,8.30924,5.54E+00,5.93E-03
289.6,8.38631,5.56E+00,6.65E-03
292.2,8.46355,5.56E+00,6.41E-03
294.8,8.54096,5.58E+00,6.16E-03
297.4,8.61785,5.58E+00,5.91E-03
300,8.69543,5.59E+00,5.66E-03
302.6,8.77253,5.58E+00,5.77E-03
305.2,8.84973,5.58E+00,6.06E-03
307.8,8.92704,5.59E+00,6.62E-03
310.4,9.00444,5.60E+00,6.39E-03
313,9.08146,5.60E+00,6.19E-03
315.6,9.15876,5.61E+00,5.98E-03
318.2,9.2363,5.60E+00,5.72E-03
320.8,9.3137,5.61E+00,5.42E-03
323.4,9.39124,5.63E+00,5.13E-03
326,9.4685,5.62E+00,6.11E-03
328.6,9.54638,5.63E+00,5.75E-03
331.2,9.62318,5.63E+00,5.40E-03
333.8,9.70099,5.63E+00,5.04E-03
336.4,9.77861,5.63E+00,4.66E-03
339,9.85645,5.62E+00,4.31E-03
341.6,9.93431,5.63E+00,3.96E-03
344.2,10.0119,5.63E+00,3.61E-03
346.8,10.0897,5.63E+00,4.63E-03
349.4,10.1677,5.63E+00,4.33E-03
352,10.2459,5.65E+00,2.61E-03
354.6,10.324,5.64E+00,2.42E-03
357.2,10.4022,5.64E+00,3.17E-03
359.8,10.4804,5.63E+00,2.79E-03
362.4,10.5588,5.63E+00,2.39E-03
365,10.6373,5.63E+00,1.99E-03
367.6,10.7157,5.62E+00,1.60E-03
370.2,10.7943,5.62E+00,5.84E-04
372.8,10.873,5.61E+00,2.36E-04
375.4,10.9517,5.61E+00,-1.30E-04
378,11.0305,5.60E+00,8.29E-04
380.6,11.1091,5.59E+00,1.26E-03
383.2,11.1882,5.59E+00,1.05E-03
385.8,11.2672,5.58E+00,-6.55E-04
388.4,11.3461,5.56E+00,-1.14E-03
391,11.4254,5.55E+00,-1.66E-03
393.6,11.5045,5.53E+00,-2.21E-03
396.2,11.5839,5.53E+00,-2.82E-03
398.8,11.6634,5.51E+00,-3.48E-03
401.4,11.7429,5.50E+00,-4.16E-03
404,11.8222,5.49E+00,-4.93E-03
406.6,11.9019,5.47E+00,-5.69E-03
409.2,11.9816,5.46E+00,-5.21E-03
411.8,12.0611,5.46E+00,-4.79E-03
414.4,12.1411,5.44E+00,-5.69E-03
417,12.2211,5.42E+00,-8.05E-03
419.6,12.3011,5.42E+00,-9.10E-03
422.2,12.381,5.44E+00,-1.02E-02
424.8,12.4612,5.43E+00,-1.01E-02
427.4,12.5414,5.43E+00,-1.15E-02
430,12.621,5.43E+00,-1.16E-02
432.6,12.7022,5.43E+00,-1.35E-02
435.2,12.7826,5.43E+00,-1.55E-02
437.8,12.8631,5.43E+00,-1.80E-02
440.4,12.9437,5.45E+00,-2.09E-02
443,13.0244,5.46E+00,-2.32E-02
445.6,13.1051,5.47E+00,-2.84E-02
448.2,13.1858,5.48E+00,-3.31E-02
450.8,13.2667,5.51E+00,-3.69E-02
453.4,13.3473,5.51E+00,-4.30E-02
456,13.4286,5.53E+00,-5.12E-02
458.6,13.5095,5.54E+00,-5.89E-02
461.2,13.5901,5.57E+00,-6.71E-02
463.8,13.6717,5.57E+00,-7.58E-02
466.4,13.7525,5.55E+00,-8.75E-02
469,13.8339,5.61E+00,-0.10028
471.6,13.9153,5.65E+00,-0.11348
474.2,13.9971,5.75E+00,-0.12969
476.8,14.0779,5.80E+00,-0.14895
479.4,14.1599,5.86E+00,-0.17173
482,14.2419,6.02E+00,-0.19876
484.6,14.324,6.15E+00,-0.23061
487.2,14.4052,6.35E+00,-0.26652
489.8,14.4879,6.53E+00,-0.31079
492.4,14.5702,6.71E+00,-0.36151
495,14.6521,6.96E+00,-0.42105
497.6,14.7353,7.18E+00,-0.4906
500.2,14.8174,7.45E+00,-0.57116
502.8,14.9002,7.71E+00,-0.66418
505.4,14.9832,8.00E+00,-0.76714
508,15.0654,8.10E+00,-0.88566
510.6,15.148,8.18E+00,-1.0183
513.2,15.2305,8.49E+00,-1.16872
515.8,15.3138,8.60E+00,-1.33666
518.4,15.3967,8.79E+00,-1.5197
521,15.4789,8.81E+00,-1.7131
523.6,15.5616,8.83E+00,-1.90948
526.2,15.644,8.71E+00,-2.09669
528.8,15.7251,8.28E+00,-2.2597
531.4,15.8053,7.38E+00,-2.40252
534,15.8834,6.12E+00,-2.52087
536.6,15.9613,4.59E+00,-2.61572
539.2,16.0395,3.16E+00,-2.68892
541.8,16.1193,2.27E+00,-2.75123
544.4,16.1997,1.73E+00,-2.80449
547,16.2811,1.46E+00,-2.84609
549.6,16.3632,1.38E+00,-2.87927
552.2,16.4453,1.36E+00,-2.90386
554.8,16.5278,1.39E+00,-2.92113
557.4,16.6101,1.41E+00,-2.94002
560,16.6927,1.41E+00,-2.95394
562.6,16.7753,1.41E+00,-2.98384
565.2,16.8578,1.40E+00,-3.00775
567.8,16.941,1.39E+00,-3.03583
570.4,17.0237,1.35E+00,-3.09528
573,17.1071,1.35E+00,-3.16146
575.6,17.1904,1.35E+00,-3.23712
578.2,17.2742,1.30E+00,-3.32202
580.8,17.3583,1.34E+00,-3.40429
583.4,17.4422,9.94E-01,-3.47803
586,17.5276,8.23E-01,-3.5378
588.6,17.6124,7.42E-01,-3.57593
591.2,17.6976,6.97E-01,-3.60603
593.8,17.782,6.63E-01,-3.62444
596.4,17.8663,6.48E-01,-3.61786
599,17.951,6.29E-01,-3.60449
601.6,18.0355,6.24E-01,-3.58403
604.2,18.1195,6.13E-01,-3.56164
606.8,18.204,5.73E-01,-3.53706
609.4,18.2883,5.75E-01,-3.51406
612,18.3725,5.58E-01,-3.49309
614.6,18.4569,5.66E-01,-3.4736
617.2,18.5413,5.96E-01,-3.45523
619.8,18.6261,6.02E-01,-3.44027
622.4,18.7105,5.70E-01,-3.4273
625,18.7947,6.03E-01,-3.41566
627.6,18.8795,6.27E-01,-3.40565
630.2,18.9642,6.18E-01,-3.39709
632.8,19.0486,6.36E-01,-3.38987
635.4,19.1335,6.60E-01,-3.3835
638,19.2178,6.42E-01,-3.3776
640.6,19.3029,6.32E-01,-3.37339
643.2,19.3869,6.51E-01,-3.36888
645.8,19.472,6.52E-01,-3.36628
648.4,19.5572,6.28E-01,-3.36515
651,19.6422,6.26E-01,-3.3634
653.6,19.7269,6.13E-01,-3.36245
656.2,19.8117,6.09E-01,-3.36153
658.8,19.8968,5.88E-01,-3.36098
661.4,19.9814,5.68E-01,-3.36089
664,20.0663,5.58E-01,-3.35952
666.6,20.151,5.36E-01,-3.35978
669.2,20.2365,6.76E-01,-3.35878
671.8,20.3215,7.38E-01,-3.35937
674.4,20.406,7.34E-01,-3.35861
677,20.4916,7.24E-01,-3.3594
679.6,20.5762,7.04E-01,-3.36031
682.2,20.6612,6.67E-01,-3.36131
684.8,20.746,6.22E-01,-3.3623
687.4,20.8313,5.96E-01,-3.36334
690,20.916,5.89E-01,-3.36448
692.6,21.0012,5.51E-01,-3.36534
695.2,21.0862,5.30E-01,-3.36554
697.8,21.1711,5.02E-01,-3.36677
700.4,21.2561,4.68E-01,-3.36802
703,21.3409,4.27E-01,-3.3686
705.6,21.4261,3.92E-01,-3.3692
708.2,21.5113,3.64E-01,-3.36981
710.8,21.596,3.31E-01,-3.37109
713.4,21.6808,3.06E-01,-3.3723
716,21.7659,2.67E-01,-3.37356
718.6,21.851,2.28E-01,-3.37416
721.2,21.936,1.77E-01,-3.37411
723.8,22.021,1.40E-01,-3.37533
726.4,22.1057,9.38E-02,-3.37655
729,22.1912,4.25E-02,-3.3768
731.6,22.2766,-6.06E-03,-3.37688
734.2,22.3614,-4.12E-02,-3.37762
736.8,22.4466,-6.71E-02,-3.38025
739.4,22.5319,-1.05E-01,-3.38137
742,22.6169,-1.28E-01,-3.38129
744.6,22.7016,-1.70E-01,-3.38252
747.2,22.787,-2.01E-01,-3.38373
749.8,22.8723,-2.25E-01,-3.38395
752.4,22.9578,-2.34E-01,-3.38514
755,23.043,-2.82E-01,-3.38599
757.6,23.1282,-2.96E-01,-3.38585
760.2,23.2135,-3.20E-01,-3.38695
762.8,23.2988,-3.48E-01,-3.38804
765.4,23.3841,-3.86E-01,-3.38779
768,23.4695,-4.12E-01,-3.3889
770.6,23.5554,-4.47E-01,-3.38861
773.2,23.6407,-4.51E-01,-3.3896
775.8,23.7258,-4.54E-01,-3.38935
778.4,23.8119,-4.88E-01,-3.39108
781,23.8971,-5.11E-01,-3.39217
783.6,23.9828,-5.07E-01,-3.39193
786.2,24.0686,-5.24E-01,-3.39276
788.8,24.1541,-5.29E-01,-3.39369
,,,-3.39336
,,,-3.39404