File: 01_Data/NFPA_1981-2019_SCBA_Lens/STA/N2/30K_min/NFPA_1981-2019_SCBA_Lens_STA_N2_30KData_250909_R1.csv
Temp./C,Time/min,DSC/(mW/mg),Mass loss/mg
40,0,1.04E+00,-1.04E-05
42.6,0.161741,1.23E+00,5.06E-04
45.2,0.306209,1.39E+00,9.71E-04
47.8,0.440881,1.52E+00,1.79E-03
50.4,0.567353,1.63E+00,1.33E-03
53,0.689547,1.74E+00,2.21E-03
55.6,0.806209,1.82E+00,2.19E-03
58.2,0.919254,1.91E+00,2.78E-03
60.8,1.02965,1.98E+00,3.12E-03
63.4,1.13772,2.05E+00,3.93E-03
66,1.24422,2.12E+00,3.84E-03
68.6,1.34818,2.18E+00,4.14E-03
71.2,1.45127,2.24E+00,4.69E-03
73.8,1.55248,2.29E+00,4.72E-03
76.4,1.65304,2.34E+00,5.44E-03
79,1.7525,2.41E+00,5.03E-03
81.6,1.85072,2.46E+00,5.44E-03
84.2,1.94785,2.51E+00,5.65E-03
86.8,2.044,2.56E+00,4.81E-03
89.4,2.13917,2.61E+00,3.98E-03
92,2.23243,2.64E+00,3.66E-03
94.6,2.32518,2.66E+00,3.07E-03
97.2,2.41757,2.69E+00,4.02E-03
99.8,2.50833,2.72E+00,4.97E-03
102.4,2.59953,2.75E+00,5.83E-03
105,2.68961,2.78E+00,5.87E-03
107.6,2.77919,2.82E+00,5.57E-03
110.2,2.86862,2.86E+00,5.79E-03
112.8,2.95741,2.91E+00,5.87E-03
115.4,3.04588,2.95E+00,5.69E-03
118,3.13394,2.99E+00,5.37E-03
120.6,3.22169,3.04E+00,6.30E-03
123.2,3.30852,3.07E+00,5.84E-03
125.8,3.39509,3.11E+00,5.37E-03
128.4,3.48092,3.14E+00,5.16E-03
131,3.56635,3.19E+00,5.76E-03
133.6,3.65104,3.22E+00,5.29E-03
136.2,3.7354,3.26E+00,4.84E-03
138.8,3.81906,3.31E+00,5.70E-03
141.4,3.90294,3.34E+00,5.20E-03
144,3.98594,3.39E+00,5.90E-03
146.6,4.06869,3.42E+00,6.42E-03
149.2,4.1507,3.46E+00,6.77E-03
151.8,4.2328,3.50E+00,7.15E-03
154.4,4.3144,3.53E+00,7.46E-03
157,4.39616,3.57E+00,7.68E-03
159.6,4.4774,3.61E+00,6.55E-03
162.2,4.55871,3.64E+00,6.78E-03
164.8,4.63989,3.69E+00,5.61E-03
167.4,4.72027,3.72E+00,5.67E-03
170,4.80097,3.76E+00,5.68E-03
172.6,4.88167,3.79E+00,5.60E-03
175.2,4.96203,3.83E+00,5.49E-03
177.8,5.04169,3.87E+00,6.61E-03
180.4,5.121654,3.91E+00,5.30E-03
183,5.20129,3.93E+00,4.81E-03
185.6,5.28027,3.97E+00,4.60E-03
188.2,5.35953,4.00E+00,4.43E-03
190.8,5.43863,4.04E+00,5.69E-03
193.4,5.51667,4.07E+00,5.65E-03
196,5.5959,4.12E+00,5.54E-03
198.6,5.67429,4.17E+00,5.50E-03
201.2,5.75324,4.26E+00,4.16E-03
203.8,5.83184,4.38E+00,5.60E-03
206.4,5.91045,4.53E+00,6.90E-03
209,5.98853,4.66E+00,6.89E-03
211.6,6.06736,4.71E+00,8.21E-03
214.2,6.1454,4.75E+00,6.87E-03
216.8,6.22335,4.78E+00,6.83E-03
219.4,6.30096,4.82E+00,6.73E-03
222,6.37863,4.85E+00,6.47E-03
224.6,6.4568,4.88E+00,6.29E-03
227.2,6.53445,4.92E+00,5.88E-03
229.8,6.61177,4.95E+00,4.94E-03
232.4,6.68937,4.97E+00,6.10E-03
235,6.7668,5.00E+00,5.94E-03
237.6,6.84446,5.02E+00,5.75E-03
240.2,6.92088,5.04E+00,4.76E-03
242.8,6.99897,5.06E+00,4.70E-03
245.4,7.07614,5.09E+00,4.58E-03
248,7.15325,5.11E+00,5.84E-03
250.6,7.23066,5.12E+00,5.63E-03
253.2,7.30742,5.14E+00,5.38E-03
255.8,7.38488,5.17E+00,5.07E-03
258.4,7.46226,5.19E+00,5.05E-03
261,7.53893,5.22E+00,5.75E-03
263.6,7.61638,5.25E+00,5.94E-03
266.2,7.69309,5.27E+00,6.41E-03
268.8,7.77036,5.29E+00,6.09E-03
271.4,7.84712,5.31E+00,5.84E-03
274,7.92429,5.33E+00,4.40E-03
276.6,8.00118,5.35E+00,5.62E-03
279.2,8.07835,5.38E+00,5.48E-03
281.8,8.15582,5.38E+00,5.32E-03
284.4,8.23264,5.40E+00,5.16E-03
287,8.30991,5.42E+00,5.04E-03
289.6,8.38671,5.39E+00,6.25E-03
292.2,8.46413,5.42E+00,5.97E-03
294.8,8.54151,5.45E+00,6.77E-03
297.4,8.61849,5.47E+00,6.52E-03
300,8.69607,5.50E+00,6.27E-03
302.6,8.77315,5.51E+00,4.65E-03
305.2,8.85028,5.52E+00,5.65E-03
307.8,8.92772,5.54E+00,6.03E-03
310.4,9.00539,5.55E+00,6.33E-03
313,9.08266,5.55E+00,4.74E-03
315.6,9.15971,5.56E+00,5.81E-03
318.2,9.23729,5.58E+00,6.01E-03
320.8,9.31423,5.58E+00,6.01E-03
323.4,9.39223,5.59E+00,6.47E-03
326,9.46956,5.60E+00,6.28E-03
328.6,9.54723,5.60E+00,6.02E-03
331.2,9.62509,5.61E+00,5.77E-03
333.8,9.70223,5.62E+00,6.46E-03
336.4,9.78042,5.63E+00,6.48E-03
339,9.85789,5.63E+00,6.12E-03
341.6,9.93601,5.63E+00,4.42E-03
344.2,10.014,5.63E+00,4.02E-03
346.8,10.0919,5.63E+00,3.63E-03
349.4,10.17,5.63E+00,4.56E-03
352,10.2476,5.65E+00,4.15E-03
354.6,10.3264,5.64E+00,3.71E-03
357.2,10.4047,5.64E+00,3.27E-03
359.8,10.4829,5.63E+00,2.78E-03
362.4,10.5613,5.64E+00,3.59E-03
365,10.6395,5.63E+00,3.06E-03
367.6,10.7183,5.64E+00,2.56E-03
370.2,10.797,5.63E+00,1.01E-03
372.8,10.8754,5.64E+00,5.34E-04
375.4,10.9545,5.63E+00,6.85E-04
378,11.0334,5.63E+00,9.53E-04
380.6,11.1121,5.63E+00,4.49E-04
383.2,11.191,5.63E+00,-1.33E-03
385.8,11.2703,5.62E+00,-1.82E-03
388.4,11.3494,5.63E+00,-2.36E-03
391,11.4285,5.63E+00,-1.57E-03
393.6,11.5075,5.62E+00,-2.11E-03
396.2,11.587,5.63E+00,-3.61E-03
398.8,11.6668,5.62E+00,-4.13E-03
401.4,11.7462,5.62E+00,-4.55E-03
404,11.8256,5.63E+00,-3.99E-03
406.6,11.9054,5.63E+00,-4.57E-03
409.2,11.9844,5.64E+00,-5.21E-03
411.8,12.0648,5.63E+00,-5.90E-03
414.4,12.1445,5.64E+00,-5.36E-03
417,12.2243,5.64E+00,-5.65E-03
419.6,12.3043,5.65E+00,-6.09E-03
422.2,12.3843,5.66E+00,-7.31E-03
424.8,12.4645,5.66E+00,-8.77E-03
427.4,12.5449,5.64E+00,-1.13E-02
430,12.6249,5.65E+00,-1.18E-02
432.6,12.7052,5.67E+00,-1.26E-02
435.2,12.7852,5.67E+00,-1.54E-02
437.8,12.8663,5.70E+00,-1.99E-02
440.4,12.9464,5.72E+00,-2.36E-02
443,13.0271,5.71E+00,-2.64E-02
445.6,13.1076,5.73E+00,-3.00E-02
448.2,13.1886,5.72E+00,-3.54E-02
450.8,13.2691,5.72E+00,-4.07E-02
453.4,13.3501,5.75E+00,-4.81E-02
456,13.4308,5.79E+00,-5.77E-02
458.6,13.5117,5.80E+00,-6.74E-02
461.2,13.5929,5.80E+00,-7.81E-02
463.8,13.6739,5.84E+00,-8.76E-02
466.4,13.7554,5.96E+00,-0.1024
469,13.8366,6.01E+00,-0.1185
471.6,13.9181,6.07E+00,-0.1374
474.2,13.9996,6.16E+00,-0.1582
476.8,14.0813,6.27E+00,-0.18483
479.4,14.163,6.45E+00,-0.21716
482,14.2448,6.58E+00,-0.25493
484.6,14.3269,6.79E+00,-0.2977
487.2,14.4093,6.98E+00,-0.35098
489.8,14.4913,7.20E+00,-0.41437
492.4,14.5737,7.40E+00,-0.48374
495,14.6561,7.66E+00,-0.56545
497.6,14.7388,7.96E+00,-0.66177
500.2,14.8217,8.41E+00,-0.7725
502.8,14.9044,8.75E+00,-0.89952
505.4,14.9874,9.06E+00,-1.04439
508,15.07,9.22E+00,-1.20224
510.6,15.1525,9.37E+00,-1.37323
513.2,15.2354,9.55E+00,-1.55695
515.8,15.3172,9.45E+00,-1.74116
518.4,15.3993,9.41E+00,-1.9066
521,15.4808,9.44E+00,-2.04503
523.6,15.5616,9.21E+00,-2.19408
526.2,15.6409,8.30E+00,-2.34679
528.8,15.7194,6.93E+00,-2.49261
531.4,15.7986,5.53E+00,-2.60697
534,15.8767,4.20E+00,-2.69907
536.6,15.9559,3.08E+00,-2.77008
539.2,16.0361,2.34E+00,-2.82094
541.8,16.1172,1.95E+00,-2.85133
544.4,16.1988,1.76E+00,-2.87565
547,16.2807,1.72E+00,-2.90181
549.6,16.363,1.74E+00,-2.94006
552.2,16.4457,1.76E+00,-2.96637
554.8,16.5281,1.79E+00,-2.99154
557.4,16.611,1.80E+00,-3.0023
560,16.6937,1.77E+00,-3.00636
562.6,16.7763,1.73E+00,-3.05252
565.2,16.8594,1.73E+00,-3.12762
567.8,16.9427,1.69E+00,-3.22067
570.4,17.0267,1.67E+00,-3.33803
573,17.111,1.63E+00,-3.4336
575.6,17.1956,1.59E+00,-3.51549
578.2,17.2797,1.47E+00,-3.58203
580.8,17.3642,1.29E+00,-3.61048
583.4,17.4489,1.22E+00,-3.626
586,17.5331,1.21E+00,-3.62667
588.6,17.6173,1.17E+00,-3.61463
591.2,17.7012,1.16E+00,-3.59754
593.8,17.7859,1.15E+00,-3.57721
596.4,17.8704,1.14E+00,-3.55498
599,17.9541,1.13E+00,-3.5331
601.6,18.0384,1.12E+00,-3.51135
604.2,18.1228,1.09E+00,-3.49105
606.8,18.2068,1.09E+00,-3.47324
609.4,18.2909,1.07E+00,-3.45449
612,18.3751,1.08E+00,-3.43886
614.6,18.4593,1.08E+00,-3.42736
617.2,18.5437,1.06E+00,-3.41469
619.8,18.6279,1.05E+00,-3.4029
622.4,18.7126,1.07E+00,-3.39414
625,18.7965,1.08E+00,-3.38606
627.6,18.8805,1.08E+00,-3.38192
630.2,18.9657,1.08E+00,-3.37817
632.8,19.0504,1.07E+00,-3.37339
635.4,19.135,1.07E+00,-3.37043
638,19.2193,1.07E+00,-3.3669
640.6,19.3043,1.08E+00,-3.36533
643.2,19.389,1.09E+00,-3.36422
645.8,19.4735,1.08E+00,-3.36356
648.4,19.5583,1.07E+00,-3.36197
651,19.6432,1.09E+00,-3.36059
653.6,19.7279,1.06E+00,-3.36122
656.2,19.8127,1.05E+00,-3.36247
658.8,19.8973,9.92E-01,-3.36309
661.4,19.9828,9.97E-01,-3.36395
664,20.0675,9.88E-01,-3.3642
666.6,20.1527,9.76E-01,-3.36518
669.2,20.2375,9.38E-01,-3.36621
671.8,20.3225,9.18E-01,-3.36721
674.4,20.4073,8.88E-01,-3.36754
677,20.4925,8.61E-01,-3.36724
679.6,20.5771,8.29E-01,-3.36826
682.2,20.6625,7.60E-01,-3.36898
684.8,20.7474,7.12E-01,-3.36907
687.4,20.8323,6.88E-01,-3.37016
690,20.9173,6.49E-01,-3.3716
692.6,21.0016,6.03E-01,-3.3727
695.2,21.0867,5.58E-01,-3.37386
697.8,21.1724,5.21E-01,-3.37502
700.4,21.2573,4.94E-01,-3.37598
703,21.3422,4.69E-01,-3.37728
705.6,21.4273,4.33E-01,-3.3776
708.2,21.5121,3.85E-01,-3.37758
710.8,21.5969,3.47E-01,-3.38017
713.4,21.6819,3.11E-01,-3.38038
716,21.7669,2.80E-01,-3.38165
718.6,21.852,2.38E-01,-3.38284
721.2,21.9371,1.95E-01,-3.38401
723.8,22.0222,1.40E-01,-3.38518
726.4,22.1073,1.20E-01,-3.38495
729,22.1922,8.22E-02,-3.38573
731.6,22.2774,3.89E-02,-3.38555
734.2,22.3624,-5.72E-04,-3.38663
736.8,22.4477,-2.19E-02,-3.38654
739.4,22.5326,-5.74E-02,-3.38772
742,22.6178,-9.55E-02,-3.38888
744.6,22.7027,-1.24E-01,-3.39133
747.2,22.788,-1.62E-01,-3.39244
749.8,22.8733,-2.07E-01,-3.39375
752.4,22.9583,-2.63E-01,-3.39568
755,23.0436,-3.09E-01,-3.39601
757.6,23.1286,-3.07E-01,-3.39588
760.2,23.2142,-3.38E-01,-3.39615
762.8,23.299,-3.74E-01,-3.39696
765.4,23.3846,-3.98E-01,-3.39811
768,23.4698,-4.42E-01,-3.39926
770.6,23.5554,-4.62E-01,-3.39898
773.2,23.6405,-4.75E-01,-3.39998
775.8,23.7259,-5.11E-01,-3.40008
778.4,23.8114,-5.29E-01,-3.39935
781,23.8962,-5.53E-01,-3.40036
783.6,23.9821,-5.49E-01,-3.40112
786.2,24.0678,-5.84E-01,-3.40175
788.8,24.153,-6.06E-01,-3.40239
,,-6.47E-01,
,,-6.15E-01,