File: 01_Data/Two_Layer_Turnout_Gear_Moisture_Barrier/STA/N2/10K_min/Two_Layer_Turnout_Gear_Moisture_Barrier_STA_N2_10KData_240521_R1.csv
Temp./C,Time/min,DSC/(mW/mg),Mass loss/mg
60.0,0.0,0.85659,-0.0192619
62.5,0.280584,0.937756,-0.0206098
65,0.553417,0.99608,-0.0211686
67.5,0.819188,1.04694,-0.0235897
70,1.08686,1.10245,-0.02492
72.5,1.34845,1.14882,-0.0268911
75,1.60826,1.18285,-0.0263143
77.5,1.86892,1.21195,-0.0275594
80,2.1264,1.24103,-0.0302014
82.5,2.38209,1.25506,-0.0305084
85,2.63429,1.26781,-0.0341424
87.5,2.88641,1.27085,-0.0354476
90,3.13273,1.26375,-0.0368556
92.5,3.38269,1.25871,-0.0380975
95,3.62882,1.24223,-0.0394439
97.5,3.87407,1.2163,-0.0407016
100,4.11828,1.19436,-0.0413884
102.5,4.36242,1.17558,-0.0417281
105,4.60573,1.15581,-0.0433618
107.5,4.84898,1.13344,-0.0446646
110,5.09073,1.11327,-0.04468
112.5,5.33381,1.10411,-0.0459998
115,5.57559,1.09783,-0.04371
117.5,5.81891,1.08727,-0.0471557
120,6.05845,1.08606,-0.04632
122.5,6.30082,1.07839,-0.0459901
125,6.54221,1.07587,-0.0486304
127.5,6.7826,1.08237,-0.0456673
130,7.02137,1.07456,-0.04665
132.5,7.26342,1.06957,-0.0466413
135,7.50278,1.07285,-0.0466165
137.5,7.74237,1.08399,-0.0470077
140,7.98138,1.0876,-0.048312
142.5,8.22168,1.09062,-0.0467464
145,8.46085,1.09451,-0.04775
147.5,8.69899,1.10266,-0.0471775
150,8.93881,1.10647,-0.0490892
152.5,9.17634,1.10821,-0.0499506
155,9.41506,1.11765,-0.0500839
157.5,9.65496,1.12503,-0.0474131
160,9.89269,1.12531,-0.0477454
162.5,10.1316,1.13526,-0.0487399
165,10.3689,1.13838,-0.0503892
167.5,10.6088,1.14236,-0.04808
170,10.846,1.15016,-0.0493902
172.5,11.0853,1.15265,-0.04939
175,11.324,1.15584,-0.0493998
177.5,11.5612,1.15752,-0.0494
180,11.8,1.15965,-0.0503935
182.5,12.0389,1.16308,-0.0481638
185,12.2766,1.1689,-0.05061
187.5,12.5152,1.16908,-0.0481062
190,12.7524,1.16837,-0.0492801
192.5,12.9902,1.1763,-0.04863
195,13.2287,1.17787,-0.0499509
197.5,13.4656,1.17992,-0.0512693
200,13.7036,1.17096,-0.0509405
202.5,13.9405,1.17957,-0.05094
205,14.1785,1.18392,-0.05225
207.5,14.4154,1.19321,-0.05126
210,14.6552,1.20171,-0.052326
212.5,14.8943,1.20758,-0.0532373
215,15.1302,1.21249,-0.0531631
217.5,15.3702,1.22199,-0.05357
220,15.6048,1.21697,-0.05357
222.5,15.8456,1.21369,-0.0548904
225,16.0827,1.22254,-0.05488
227.5,16.3201,1.22566,-0.0562029
230,16.5575,1.22599,-0.0558266
232.5,16.796,1.2281,-0.0568882
235,17.032,1.22797,-0.0551073
237.5,17.2694,1.23888,-0.0579588
240,17.5089,1.23202,-0.0589563
242.5,17.7475,1.24505,-0.05895
245,17.9845,1.25105,-0.06038
247.5,18.2243,1.25723,-0.0593878
250,18.4617,1.26226,-0.0645061
252.5,18.7014,1.26757,-0.06236
255,18.9397,1.26929,-0.0636596
257.5,19.1781,1.26271,-0.0670115
260,19.4165,1.25202,-0.0663187
262.5,19.654,1.26371,-0.06894
265,19.8937,1.30073,-0.07025
267.5,20.1332,1.33685,-0.07289
270,20.3725,1.37657,-0.0755247
272.5,20.6119,1.41051,-0.0781479
275,20.8512,1.42325,-0.0819829
277.5,21.0908,1.42709,-0.0838393
280,21.3306,1.40706,-0.0892671
282.5,21.5696,1.40369,-0.0932978
285,21.8066,1.39385,-0.0976
287.5,22.0493,1.3939,-0.103257
290,22.2895,1.39019,-0.10771
292.5,22.5284,1.39499,-0.114355
295,22.7663,1.39576,-0.120861
297.5,23.0069,1.39817,-0.128261
300,23.2468,1.387,-0.134504
302.5,23.4844,1.39042,-0.141556
305,23.7261,1.379,-0.148049
307.5,23.965,1.37829,-0.154951
310,24.2057,1.37222,-0.163272
312.5,24.445,1.35643,-0.167325
315,24.6874,1.34325,-0.177842
317.5,24.9259,1.33799,-0.18451
320,25.1653,1.3591,-0.19132
322.5,25.4093,1.40127,-0.196933
325,25.6526,1.55369,-0.206779
327.5,25.8975,1.86866,-0.213459
330,26.1388,1.82755,-0.222309
332.5,26.3777,1.56826,-0.229315
335,26.6165,1.41165,-0.239211
337.5,26.8567,1.33726,-0.245588
340,27.0977,1.31949,-0.254816
342.5,27.3404,1.30606,-0.264201
345,27.5824,1.30568,-0.272328
347.5,27.8238,1.29458,-0.283968
350,28.0656,1.2892,-0.293996
352.5,28.3084,1.28095,-0.298248
355,28.5504,1.26966,-0.31121
357.5,28.7932,1.25384,-0.319633
360,29.0348,1.23659,-0.327534
362.5,29.2788,1.2143,-0.337168
365,29.5173,1.19677,-0.34538
367.5,29.764,1.17628,-0.353966
370,30.0069,1.15941,-0.364032
372.5,30.2493,1.14221,-0.370694
375,30.4922,1.13479,-0.379625
377.5,30.7355,1.11517,-0.389607
380,30.9795,1.1132,-0.399105
382.5,31.2238,1.11037,-0.408369
385,31.4676,1.11386,-0.418917
387.5,31.7134,1.11285,-0.430032
390,31.957,1.11324,-0.442587
392.5,32.2013,1.11456,-0.452755
395,32.4466,1.11707,-0.467026
397.5,32.6915,1.13228,-0.477664
400,32.9377,1.15631,-0.489999
402.5,33.1811,1.18226,-0.500773
405,33.4297,1.21356,-0.511621
407.5,33.6761,1.24121,-0.521918
410,33.9223,1.26689,-0.532134
412.5,34.1688,1.29468,-0.543264
415,34.4149,1.32749,-0.552674
417.5,34.6581,1.34964,-0.563971
420,34.9062,1.37253,-0.57292
422.5,35.1502,1.36366,-0.585973
425,35.397,1.36474,-0.595364
427.5,35.6425,1.35678,-0.607349
430,35.8883,1.35782,-0.617873
432.5,36.1357,1.35446,-0.629946
435,36.3815,1.34441,-0.640757
437.5,36.6286,1.34384,-0.651651
440,36.8764,1.33575,-0.666041
442.5,37.123,1.3244,-0.677936
445,37.371,1.32283,-0.69156
447.5,37.6164,1.31218,-0.704901
450,37.8666,1.30083,-0.71886
452.5,38.1129,1.29148,-0.730027
455,38.3611,1.27424,-0.742462
457.5,38.6084,1.25323,-0.756802
460,38.8567,1.24664,-0.769039
462.5,39.1034,1.2275,-0.779868
465,39.3519,1.21074,-0.789439
467.5,39.5976,1.18527,-0.799189
470,39.847,1.15965,-0.808712
472.5,40.0954,1.13208,-0.816571
475,40.343,1.10926,-0.823698
477.5,40.5916,1.07853,-0.831469
480,40.8376,1.05433,-0.83976
482.5,41.0862,1.04614,-0.84631
485,41.3372,1.01823,-0.855493
487.5,41.5847,1.00244,-0.86157
490,41.8325,1.00227,-0.868699
492.5,42.0822,0.984918,-0.878788
495,42.3313,0.98068,-0.884248
497.5,42.5799,0.979718,-0.894258
500,42.829,0.978143,-0.901301
502.5,43.0783,0.976044,-0.90915
505,43.3274,0.968929,-0.919103
507.5,43.5775,0.974108,-0.929089
510,43.8263,0.98049,-0.936768
512.5,44.0763,0.988719,-0.952148
515,44.3233,1.00191,-0.960902
517.5,44.5754,1.01015,-0.973555
520,44.8264,1.01072,-0.986356
522.5,45.0748,1.01594,-1.00236
525,45.3259,1.02371,-1.01708
527.5,45.5735,1.01333,-1.03266
530,45.8257,1.00109,-1.05124
532.5,46.0764,1.01317,-1.07181
535,46.3265,1.0696,-1.09223
537.5,46.5777,1.18025,-1.11544
540,46.8282,1.30423,-1.13838
542.5,47.0797,1.41425,-1.16459
545,47.331,1.4964,-1.19437
547.5,47.5818,1.56601,-1.22439
550,47.834,1.62486,-1.25792
552.5,48.0842,1.66886,-1.29158
555,48.3363,1.70874,-1.32746
557.5,48.5845,1.71513,-1.36733
560,48.8367,1.71757,-1.40877
562.5,49.0858,1.69428,-1.45128
565,49.3381,1.62418,-1.49687
567.5,49.5882,1.51019,-1.53839
570,49.8378,1.34055,-1.58247
572.5,50.0871,1.1201,-1.62225
575,50.3334,0.798933,-1.65845
577.5,50.5809,0.464436,-1.68885
580,50.8299,0.198048,-1.70865
582.5,51.0818,0.115285,-1.72315
585,51.334,0.200942,-1.73426
587.5,51.5881,0.311031,-1.74084
590,51.8401,0.390773,-1.74479
592.5,52.0934,0.439582,-1.74873
595,52.3483,0.483942,-1.75167
597.5,52.6013,0.514679,-1.75684
600,52.8549,0.53039,-1.7604
602.5,53.1068,0.565859,-1.76355
605,53.3629,0.5898,-1.76832
607.5,53.6166,0.61177,-1.77112
610,53.8696,0.634708,-1.7764
612.5,54.1226,0.659545,-1.77903
615,54.3754,0.685746,-1.78298
617.5,54.6285,0.717624,-1.78579
620,54.8817,0.73748,-1.7877
622.5,55.136,0.772189,-1.7922
625,55.3893,0.794276,-1.79528
627.5,55.6431,0.81493,-1.80043
630,55.8969,0.835393,-1.7989
632.5,56.1509,0.851381,-1.80582
635,56.404,0.870266,-1.80977
637.5,56.6575,0.896336,-1.81109
640,56.9108,0.921346,-1.81325
642.5,57.1649,0.942773,-1.81784
645,57.4169,0.962514,-1.82217
647.5,57.6711,0.983906,-1.82495
650,57.9251,0.99552,-1.82747
652.5,58.1802,1.01322,-1.83273
655,58.4337,1.02224,-1.83636
657.5,58.6899,1.05104,-1.83941
660,58.9439,1.0614,-1.84204
662.5,59.1964,1.0818,-1.846
665,59.4521,1.09668,-1.84967
667.5,59.7069,1.10927,-1.85259
670,59.9611,1.12124,-1.85642
672.5,60.2159,1.14529,-1.86054
675,60.4697,1.15375,-1.86449
677.5,60.7247,1.16809,-1.86708
680,60.9792,1.18968,-1.86929
682.5,61.2344,1.20326,-1.87376
685,61.4877,1.20422,-1.87664
687.5,61.7433,1.21966,-1.88058
690,61.9977,1.23326,-1.88421
692.5,62.2523,1.23944,-1.88685
695,62.5068,1.25055,-1.89138
697.5,62.7612,1.25375,-1.89401
700,63.0162,1.24922,-1.89639
702.5,63.2689,1.25614,-1.90319
705,63.5249,1.24583,-1.90715
707.5,63.7799,1.24905,-1.91009
710,64.0343,1.25607,-1.91474
712.5,64.2888,1.26085,-1.91613
715,64.5418,1.25701,-1.92145
717.5,64.7986,1.26597,-1.9267
720,65.0534,1.25511,-1.93082
722.5,65.308,1.25567,-1.93231
725,65.5639,1.25895,-1.93658
727.5,65.8184,1.26726,-1.94084
730,66.0743,1.2607,-1.94338
732.5,66.3293,1.24191,-1.94733
735,66.5851,1.23383,-1.95138
737.5,66.838,1.21018,-1.95479
740,67.0934,1.19111,-1.95796
742.5,67.3488,1.1788,-1.95947
745,67.6038,1.15866,-1.96457
747.5,67.8592,1.14542,-1.96722
750,68.1144,1.13005,-1.97127
752.5,68.3702,1.10477,-1.97655
755,68.6229,1.0943,-1.9792
757.5,68.8804,1.08347,-1.9821
760,69.1356,1.07753,-1.98444
762.5,69.3899,1.0645,-1.98872
765,69.6447,1.05123,-1.98955
767.5,69.9,1.04112,-1.99399
770,70.1532,1.04195,-1.99658
772.5,70.4103,1.0271,-2.00064
775,70.6663,1.02086,-2.00189
777.5,70.9193,1.00768,-2.00453
780,71.1765,1.00326,-2.00585
782.5,71.4323,0.993659,-2.01026
785,71.687,0.991567,-2.01155
787.5,71.9434,0.993523,-2.01452
790,72.1993,0.991925,-2.01687