File: 01_Data/Two_Layer_Turnout_Gear_Moisture_Barrier/STA/N2/10K_min/Two_Layer_Turnout_Gear_Moisture_Barrier_STA_N2_10KData_240530_R2.csv
Temp./C,Time/min,DSC/(mW/mg),Mass loss/mg
60.0,0.0,0.853347,-0.0182473
62.5,0.283519,0.926999,-0.0175949
65,0.553699,0.981506,-0.0168269
67.5,0.822459,1.0438,-0.0183664
70,1.0882,1.08815,-0.0203086
72.5,1.35158,1.12417,-0.0224853
75,1.61186,1.16567,-0.0237201
77.5,1.86949,1.20859,-0.0244854
80,2.12749,1.23196,-0.0247001
82.5,2.38256,1.25499,-0.0261513
85,2.63557,1.25545,-0.0272287
87.5,2.88838,1.25488,-0.0294316
90,3.13389,1.24122,-0.0304166
92.5,3.38485,1.23857,-0.0304212
95,3.63088,1.22391,-0.0320192
97.5,3.87561,1.2085,-0.0339135
100,4.12021,1.18979,-0.0326098
102.5,4.36395,1.17614,-0.0339199
105,4.60849,1.148,-0.0357912
107.5,4.85179,1.1382,-0.0357549
110,5.09373,1.11561,-0.0371081
112.5,5.33562,1.11231,-0.0360831
115,5.57816,1.10686,-0.0371101
117.5,5.82035,1.10094,-0.03711
120,6.06397,1.09422,-0.0397506
122.5,6.30404,1.10436,-0.0393894
125,6.54611,1.10664,-0.0381
127.5,6.78793,1.10232,-0.0394262
130,7.0301,1.1049,-0.0399039
132.5,7.27061,1.10565,-0.0400365
135,7.51137,1.10964,-0.0372202
137.5,7.75146,1.12193,-0.0388703
140,7.9908,1.11841,-0.03886
142.5,8.22851,1.12525,-0.0402744
145,8.47036,1.13221,-0.0401631
147.5,8.70912,1.13709,-0.0414939
150,8.94754,1.14616,-0.0408405
152.5,9.18584,1.15948,-0.0392011
155,9.42409,1.16265,-0.039201
157.5,9.66174,1.17748,-0.0392
160,9.8995,1.17928,-0.0393821
162.5,10.1385,1.19153,-0.0418105
165,10.3752,1.20037,-0.0417249
167.5,10.6116,1.20858,-0.0430405
170,10.8494,1.20579,-0.0387376
172.5,11.0881,1.21536,-0.0404099
175,11.3253,1.21977,-0.04172
177.5,11.5632,1.22586,-0.0407302
180,11.8011,1.23291,-0.0420503
182.5,12.0376,1.24229,-0.0430923
185,12.2754,1.2408,-0.0430331
187.5,12.5141,1.23859,-0.0430401
190,12.7513,1.24019,-0.04304
192.5,12.9886,1.24493,-0.0417636
195,13.2253,1.24393,-0.0466465
197.5,13.4638,1.25468,-0.0443601
200,13.7011,1.26704,-0.04337
202.5,13.9379,1.26191,-0.0426832
205,14.1755,1.27671,-0.0433699
207.5,14.4144,1.27181,-0.0456537
210,14.6506,1.27741,-0.0443764
212.5,14.8885,1.27471,-0.04304
215,15.1246,1.28248,-0.04699
217.5,15.3625,1.28715,-0.0469901
220,15.6019,1.28785,-0.0456712
222.5,15.8393,1.29306,-0.0446802
225,16.0753,1.29728,-0.0460001
227.5,16.3137,1.30428,-0.04995
230,16.552,1.31631,-0.0495966
232.5,16.7887,1.32336,-0.048331
235,17.0269,1.32984,-0.049739
237.5,17.2642,1.33804,-0.05105
240,17.5021,1.33672,-0.0484162
242.5,17.7404,1.34396,-0.0551174
245,17.978,1.36018,-0.0541278
247.5,18.216,1.37355,-0.0515116
250,18.4517,1.38604,-0.0528192
252.5,18.6916,1.38557,-0.0573107
255,18.9302,1.40315,-0.0577337
257.5,19.1667,1.39325,-0.0589605
260,19.4062,1.40155,-0.0602801
262.5,19.6422,1.41112,-0.0628839
265,19.8827,1.44757,-0.0650121
267.5,20.1221,1.49395,-0.06752
270,20.3604,1.52904,-0.0688395
272.5,20.5993,1.56396,-0.0727136
275,20.8394,1.58408,-0.0767353
277.5,21.0782,1.57747,-0.0795689
280,21.3165,1.58144,-0.0837515
282.5,21.5558,1.57297,-0.0876143
285,21.7954,1.58033,-0.0916208
287.5,22.0338,1.58085,-0.0968158
290,22.2736,1.5829,-0.101767
292.5,22.513,1.59273,-0.1087
295,22.7514,1.60299,-0.11462
297.5,22.9903,1.61244,-0.120124
300,23.2295,1.61845,-0.127778
302.5,23.4695,1.6136,-0.133398
305,23.709,1.61381,-0.142881
307.5,23.9481,1.60585,-0.151346
310,24.1888,1.60549,-0.156339
312.5,24.4288,1.60523,-0.16476
315,24.6671,1.59642,-0.17185
317.5,24.9045,1.59907,-0.178517
320,25.1469,1.609,-0.185604
322.5,25.3882,1.65338,-0.196453
325,25.6294,1.81392,-0.202034
327.5,25.8729,2.13356,-0.209015
330,26.1139,2.07438,-0.214609
332.5,26.3512,1.8053,-0.228231
335,26.5902,1.65369,-0.236599
337.5,26.83,1.58596,-0.245129
340,27.0685,1.55524,-0.254761
342.5,27.3102,1.54016,-0.261719
345,27.5511,1.52986,-0.273749
347.5,27.7911,1.52121,-0.280721
350,28.0332,1.51043,-0.290891
352.5,28.2738,1.49207,-0.297954
355,28.5154,1.47391,-0.306009
357.5,28.7557,1.46856,-0.315807
360,28.9976,1.45343,-0.323463
362.5,29.24,1.43992,-0.331988
365,29.4814,1.42061,-0.339672
367.5,29.724,1.4073,-0.353367
370,29.9652,1.38041,-0.361976
372.5,30.206,1.37247,-0.367579
375,30.4493,1.36252,-0.376984
377.5,30.693,1.35587,-0.387672
380,30.9353,1.35061,-0.398953
382.5,31.1783,1.35581,-0.408713
385,31.4224,1.35616,-0.420355
387.5,31.6657,1.3601,-0.431053
390,31.9084,1.3638,-0.443695
392.5,32.1516,1.38031,-0.453527
395,32.3955,1.39381,-0.465119
397.5,32.6384,1.4149,-0.478726
400,32.8804,1.43188,-0.490708
402.5,33.1277,1.44837,-0.501052
405,33.3726,1.47651,-0.51341
407.5,33.6167,1.51299,-0.52184
410,33.8623,1.54643,-0.535188
412.5,34.107,1.58055,-0.544533
415,34.3518,1.61146,-0.5543
417.5,34.5957,1.65142,-0.564434
420,34.8406,1.66013,-0.576178
422.5,35.0864,1.66422,-0.588945
425,35.3308,1.66616,-0.598063
427.5,35.5754,1.65672,-0.610782
430,35.8213,1.65104,-0.62566
432.5,36.0664,1.64733,-0.634994
435,36.3118,1.64269,-0.644757
437.5,36.559,1.639,-0.660087
440,36.805,1.63846,-0.670789
442.5,37.05,1.63108,-0.683332
445,37.2958,1.63124,-0.694815
447.5,37.5417,1.62424,-0.708652
450,37.7874,1.62773,-0.72182
452.5,38.0347,1.62403,-0.735711
455,38.2794,1.62106,-0.747569
457.5,38.5255,1.60754,-0.763453
460,38.7723,1.60835,-0.769816
462.5,39.019,1.59752,-0.778466
465,39.2645,1.59234,-0.790145
467.5,39.5113,1.57268,-0.798454
470,39.7574,1.5529,-0.806134
472.5,40.0044,1.53022,-0.815063
475,40.2511,1.52611,-0.820637
477.5,40.4982,1.5106,-0.830862
480,40.7443,1.5035,-0.840338
482.5,40.9926,1.50551,-0.8417
485,41.2391,1.51547,-0.852529
487.5,41.4873,1.51274,-0.856871
490,41.7354,1.51569,-0.865233
492.5,41.9829,1.51708,-0.873935
495,42.2312,1.52093,-0.88277
497.5,42.4806,1.52945,-0.889628
500,42.7294,1.53569,-0.89946
502.5,42.9782,1.54059,-0.909447
505,43.2268,1.54425,-0.917633
507.5,43.4757,1.55967,-0.927955
510,43.7238,1.56728,-0.936247
512.5,43.9732,1.5861,-0.948543
515,44.2212,1.60263,-0.959156
517.5,44.4697,1.62464,-0.972391
520,44.7195,1.64894,-0.985594
522.5,44.9679,1.66509,-1.0001
525,45.2161,1.6882,-1.01232
527.5,45.4659,1.68976,-1.03282
530,45.7155,1.68437,-1.04978
532.5,45.9635,1.67607,-1.06869
535,46.2132,1.68904,-1.09367
537.5,46.4628,1.73377,-1.11809
540,46.7141,1.85138,-1.13932
542.5,46.964,1.96919,-1.16565
545,47.2137,2.07798,-1.19457
547.5,47.4642,2.15654,-1.22559
550,47.7155,2.22762,-1.25644
552.5,47.964,2.29992,-1.29231
555,48.2146,2.3366,-1.32808
557.5,48.4642,2.35334,-1.36601
560,48.7144,2.35822,-1.40657
562.5,48.964,2.3231,-1.44744
565,49.2138,2.26847,-1.4903
567.5,49.4625,2.16818,-1.53398
570,49.7115,2.00218,-1.57837
572.5,49.959,1.77882,-1.61929
575,50.2056,1.45677,-1.6555
577.5,50.4523,1.06417,-1.68749
580,50.6998,0.725664,-1.70675
582.5,50.9477,0.575291,-1.72109
585,51.1982,0.629174,-1.73357
587.5,51.4509,0.703569,-1.74301
590,51.7039,0.760387,-1.74437
592.5,51.9555,0.81864,-1.747
595,52.2061,0.850655,-1.75357
597.5,52.458,0.875092,-1.7573
600,52.7103,0.891752,-1.76125
602.5,52.9615,0.901599,-1.76664
605,53.2122,0.912485,-1.76931
607.5,53.4678,0.933719,-1.77377
610,53.7178,0.958461,-1.77336
612.5,53.971,0.971902,-1.77805
615,54.2231,0.996572,-1.78199
617.5,54.4753,1.01603,-1.78464
620,54.7276,1.02457,-1.78857
622.5,54.9799,1.04993,-1.79189
625,55.2324,1.06982,-1.7956
627.5,55.4851,1.08735,-1.8006
630,55.738,1.11806,-1.80561
632.5,55.9911,1.13465,-1.80561
635,56.2446,1.15611,-1.80925
637.5,56.4966,1.17396,-1.81222
640,56.7485,1.19599,-1.81715
642.5,57.0025,1.22346,-1.82075
645,57.2556,1.22639,-1.82262
647.5,57.5088,1.24112,-1.82526
650,57.763,1.25264,-1.83047
652.5,58.0162,1.26598,-1.83479
655,58.2665,1.29301,-1.83766
657.5,58.522,1.30904,-1.83839
660,58.7747,1.31287,-1.84551
662.5,59.0248,1.33445,-1.84853
665,59.2813,1.34373,-1.85268
667.5,59.5338,1.35516,-1.85271
670,59.7869,1.36875,-1.85811
672.5,60.0403,1.36993,-1.86083
675,60.2934,1.37502,-1.86477
677.5,60.5463,1.37532,-1.86867
680,60.8,1.38158,-1.87401
682.5,61.0542,1.39468,-1.87946
685,61.3081,1.40339,-1.87883
687.5,61.5621,1.41679,-1.88361
690,61.8156,1.41545,-1.8886
692.5,62.0697,1.42436,-1.89223
695,62.3238,1.42814,-1.89421
697.5,62.5769,1.43536,-1.89693
700,62.8311,1.43242,-1.9021
702.5,63.0852,1.42997,-1.90613
705,63.3391,1.44011,-1.91013
707.5,63.5937,1.44534,-1.91464
710,63.8476,1.44021,-1.91738
712.5,64.1022,1.43624,-1.92076
715,64.3572,1.42963,-1.92604
717.5,64.6101,1.42686,-1.93001
720,64.8639,1.4118,-1.93395
722.5,65.1155,1.41808,-1.93922
725,65.3725,1.39885,-1.94195
727.5,65.6262,1.38194,-1.94633
730,65.8812,1.3643,-1.94997
732.5,66.1343,1.34506,-1.95393
735,66.3884,1.33807,-1.95789
737.5,66.6431,1.31716,-1.96113
740,66.8974,1.29833,-1.9708
742.5,67.152,1.28432,-1.97204
745,67.4058,1.26902,-1.96875
747.5,67.6603,1.24934,-1.97635
750,67.9153,1.24589,-1.98191
752.5,68.17,1.23682,-1.98368
755,68.425,1.21202,-1.98617
757.5,68.68,1.20074,-1.99031
760,68.9351,1.18499,-1.99266
762.5,69.1897,1.17068,-1.99793
765,69.446,1.14869,-2.00296
767.5,69.7001,1.14517,-2.0041
770,69.9555,1.14401,-2.00485
772.5,70.2101,1.12796,-2.00878
775,70.4639,1.11983,-2.01174
777.5,70.7182,1.12229,-2.01795
780,70.9737,1.12109,-2.01962
782.5,71.2287,1.10261,-2.021
785,71.4841,1.08734,-2.021
787.5,71.7398,1.09248,-2.02496
790,71.9945,1.09252,-2.02528