File: 01_Data/Protective_Hood/STA/N2/30K_min/Protective_Hood_STA_N2_30KData_240318_R2.csv
Temp./C,Time/min,DSC/(mW/mg),Mass loss/mg
60.0,0.0,1.59398,-0.0113896
62.5,0.124579,1.81869,-0.0158747
65,0.238426,2.01906,-0.0166802
67.5,0.345305,2.21819,-0.0131386
70,0.447423,2.37653,-0.0137344
72.5,0.545935,2.52737,-0.0111183
75,0.641302,2.66073,-0.0132743
77.5,0.734694,2.77394,-0.0141951
80,0.825431,2.88068,-0.0171177
82.5,0.916173,2.97455,-0.0158916
85,1.00528,3.07584,-0.0173368
87.5,1.09259,3.16117,-0.0178251
90,1.1791,3.23995,-0.0189788
92.5,1.2647,3.3175,-0.0186108
95,1.34919,3.38042,-0.0180187
97.5,1.43377,3.42807,-0.0179174
100,1.51733,3.49279,-0.0192866
102.5,1.60076,3.51423,-0.0191944
105,1.68351,3.54563,-0.0183389
107.5,1.76578,3.54272,-0.0196788
110,1.84877,3.54892,-0.0224439
112.5,1.9309,3.54013,-0.0249207
115,2.01373,3.53815,-0.0250014
117.5,2.09673,3.51588,-0.0237095
120,2.17874,3.51282,-0.0223876
122.5,2.26054,3.48409,-0.0223903
125,2.3421,3.48483,-0.0210718
127.5,2.42382,3.46819,-0.0210692
130,2.50501,3.46187,-0.022395
132.5,2.58596,3.47456,-0.0210807
135,2.66658,3.48214,-0.0233009
137.5,2.74712,3.48409,-0.02371
140,2.82715,3.50396,-0.0224014
142.5,2.9069,3.54128,-0.0222804
145,2.98664,3.56281,-0.0211981
147.5,3.06616,3.58808,-0.0210453
150,3.14501,3.62865,-0.0224124
152.5,3.22515,3.65519,-0.0235366
155,3.30375,3.69247,-0.0217977
157.5,3.38291,3.7295,-0.0210765
160,3.46139,3.75004,-0.0203305
162.5,3.53976,3.7832,-0.0210296
165,3.61774,3.80869,-0.0224001
167.5,3.69657,3.83477,-0.0250119
170,3.77396,3.86065,-0.0237319
172.5,3.852,3.89366,-0.021734
175,3.92964,3.92225,-0.0244249
177.5,4.00767,3.94636,-0.02306
180,4.08566,3.97669,-0.0230715
182.5,4.1629,4.01339,-0.0236624
185,4.24012,4.04528,-0.0230437
187.5,4.31694,4.08076,-0.02306
190,4.394,4.11565,-0.02306
192.5,4.47043,4.15936,-0.0237183
195,4.54694,4.20555,-0.0250296
197.5,4.62321,4.25404,-0.0250292
200,4.69987,4.29838,-0.0254529
202.5,4.77548,4.36748,-0.02536
205,4.8528,4.44081,-0.027569
207.5,4.92911,4.5171,-0.0294904
210,5.00578,4.61262,-0.0282712
212.5,5.08166,4.7211,-0.029636
215,5.15816,4.84855,-0.0310258
217.5,5.23464,4.98486,-0.0341342
220,5.31089,5.12739,-0.0360668
222.5,5.38701,5.10134,-0.0384824
225,5.46223,4.98253,-0.0405266
227.5,5.53773,4.90232,-0.044046
230,5.61274,4.72708,-0.0480138
232.5,5.68767,4.56398,-0.0526001
235,5.76266,4.44815,-0.056611
237.5,5.83801,4.37055,-0.0630437
240,5.9136,4.3185,-0.0686355
242.5,5.98898,4.27444,-0.0736922
245,6.06402,4.23768,-0.0798617
247.5,6.13948,4.19041,-0.0862952
250,6.21466,4.14023,-0.0935589
252.5,6.28958,4.07337,-0.10178
255,6.36478,3.99431,-0.107999
257.5,6.43968,3.91433,-0.116549
260,6.51477,3.82014,-0.127551
262.5,6.58996,3.7318,-0.138385
265,6.66537,3.68191,-0.149041
267.5,6.74023,3.66364,-0.161621
270,6.81582,3.74366,-0.17732
272.5,6.89165,3.98318,-0.196799
275,6.96876,4.46814,-0.21951
277.5,7.0464,5.2679,-0.248856
280,7.12675,6.41374,-0.283814
282.5,7.20695,7.708,-0.333567
285,7.2867,8.87211,-0.39291
287.5,7.36517,9.71757,-0.472008
290,7.44338,10.2352,-0.562432
292.5,7.51973,10.3987,-0.660373
295,7.5946,10.0736,-0.764965
297.5,7.66591,8.79925,-0.866719
300,7.73388,6.64657,-0.958681
302.5,7.80435,4.94608,-1.02403
305,7.87664,4.09846,-1.06043
307.5,7.95071,3.66386,-1.07801
310,8.02532,3.43577,-1.08938
312.5,8.09968,3.30647,-1.09902
315,8.1756,3.24244,-1.10908
317.5,8.25093,3.20088,-1.11707
320,8.32666,3.1809,-1.12214
322.5,8.40204,3.16196,-1.13252
325,8.47796,3.1817,-1.14027
327.5,8.55431,3.23554,-1.14922
330,8.63021,3.27049,-1.15242
332.5,8.70625,3.25494,-1.16022
335,8.7822,3.19211,-1.17037
337.5,8.858,3.13615,-1.17616
340,8.93422,3.06353,-1.18094
342.5,9.01049,2.99668,-1.18616
345,9.08633,2.93614,-1.18981
347.5,9.16301,2.8928,-1.19455
350,9.23935,2.86359,-1.20071
352.5,9.31564,2.84189,-1.2094
355,9.39212,2.82213,-1.21494
357.5,9.4679,2.81587,-1.21938
360,9.54558,2.80437,-1.22578
362.5,9.62227,2.8027,-1.23269
365,9.69925,2.7988,-1.23642
367.5,9.77614,2.80067,-1.24136
370,9.85334,2.80438,-1.24748
372.5,9.93029,2.81274,-1.25257
375,10.0077,2.82881,-1.26251
377.5,10.0847,2.83352,-1.2681
380,10.1616,2.84692,-1.27101
382.5,10.2397,2.86006,-1.27501
385,10.3171,2.88187,-1.28152
387.5,10.3946,2.90137,-1.28775
390,10.4724,2.91658,-1.29508
392.5,10.5501,2.93377,-1.30101
395,10.6278,2.9498,-1.30546
397.5,10.706,2.98214,-1.31103
400,10.7836,2.996,-1.31897
402.5,10.8617,3.01464,-1.32735
405,10.9398,3.03451,-1.3345
407.5,11.018,3.0743,-1.33816
410,11.096,3.08664,-1.34363
412.5,11.1743,3.12287,-1.35009
415,11.2526,3.14371,-1.35773
417.5,11.3312,3.16206,-1.36696
420,11.4099,3.18856,-1.37462
422.5,11.4881,3.20094,-1.38191
425,11.5669,3.22177,-1.38685
427.5,11.6457,3.24133,-1.39437
430,11.724,3.25445,-1.40027
432.5,11.8031,3.26101,-1.40635
435,11.8819,3.26466,-1.41291
437.5,11.9607,3.26284,-1.42016
440,12.0397,3.26832,-1.42635
442.5,12.1191,3.26207,-1.43361
445,12.1981,3.2603,-1.44115
447.5,12.2772,3.25756,-1.44868
450,12.3565,3.25652,-1.45212
452.5,12.4356,3.26776,-1.45826
455,12.5153,3.26913,-1.46515
457.5,12.595,3.28218,-1.46772
460,12.6741,3.28217,-1.47779
462.5,12.7537,3.27541,-1.48371
465,12.8335,3.27058,-1.49061
467.5,12.913,3.25357,-1.49854
470,12.9926,3.23124,-1.50449
472.5,13.0726,3.21384,-1.50997
475,13.1524,3.19285,-1.51463
477.5,13.2322,3.17124,-1.51745
480,13.3121,3.1519,-1.52316
482.5,13.3921,3.13201,-1.52997
485,13.4721,3.11464,-1.53386
487.5,13.5521,3.1133,-1.53674
490,13.632,3.10256,-1.54089
492.5,13.7117,3.08938,-1.54489
495,13.792,3.0743,-1.55297
497.5,13.8723,3.05798,-1.56231
500,13.9529,3.04292,-1.57166
502.5,14.0332,3.02326,-1.57591
505,14.1133,3.01598,-1.58219
507.5,14.1937,3.00786,-1.58718
510,14.2742,3.00052,-1.5909
512.5,14.3545,2.9965,-1.5951
515,14.435,2.98614,-1.5996
517.5,14.5154,2.98076,-1.6076
520,14.5956,2.97243,-1.6182
522.5,14.6767,2.96977,-1.62712
525,14.757,2.96538,-1.63497
527.5,14.838,2.96685,-1.64275
530,14.9191,2.96221,-1.65136
532.5,14.9997,2.96954,-1.6621
535,15.0805,2.9679,-1.67001
537.5,15.1615,2.97175,-1.6774
540,15.243,2.97024,-1.68852
542.5,15.3236,2.98531,-1.69823
545,15.4047,2.98161,-1.71119
547.5,15.4859,2.98868,-1.72494
550,15.5679,2.99159,-1.74001
552.5,15.6487,3.00242,-1.75283
555,15.7298,3.00686,-1.76782
557.5,15.8114,3.00108,-1.78279
560,15.8928,3.007,-1.7978
562.5,15.9741,3.00167,-1.81807
565,16.0559,2.99238,-1.8369
567.5,16.1372,2.96957,-1.85942
570,16.2186,2.95137,-1.88501
572.5,16.3,2.93221,-1.90254
575,16.3817,2.88773,-1.92306
577.5,16.4629,2.84231,-1.9426
580,16.5443,2.77361,-1.95899
582.5,16.6252,2.72393,-1.9762
585,16.707,2.67175,-1.99541
587.5,16.7874,2.63051,-2.01056
590,16.8701,2.62177,-2.02698
592.5,16.9519,2.62206,-2.03829
595,17.0343,2.64405,-2.05247
597.5,17.1162,2.66412,-2.06329
600,17.1984,2.67751,-2.07366
602.5,17.2806,2.70533,-2.08493
605,17.3631,2.7223,-2.09497
607.5,17.4453,2.73696,-2.10737
610,17.5277,2.75466,-2.11744
612.5,17.61,2.77027,-2.12851
615,17.6924,2.78567,-2.1387
617.5,17.7749,2.79001,-2.14862
620,17.8576,2.80256,-2.16165
622.5,17.9403,2.81654,-2.17323
625,18.0228,2.83516,-2.1801
627.5,18.1052,2.8457,-2.18865
630,18.1878,2.8533,-2.20275
632.5,18.2706,2.85798,-2.21234
635,18.3532,2.85759,-2.21755
637.5,18.436,2.87214,-2.2205
640,18.5184,2.87253,-2.23017
642.5,18.6014,2.88728,-2.23833
645,18.6842,2.89031,-2.24757
647.5,18.7667,2.8984,-2.25318
650,18.8496,2.90378,-2.25975
652.5,18.932,2.91327,-2.26503
655,19.0152,2.92456,-2.27036
657.5,19.098,2.93976,-2.27717
660,19.1808,2.964,-2.28598
662.5,19.2641,2.97422,-2.29241
665,19.3472,2.95955,-2.2972
667.5,19.4301,2.96956,-2.3003
670,19.5131,2.96835,-2.3058
672.5,19.596,2.97023,-2.31211
675,19.6797,2.9682,-2.31551
677.5,19.7622,2.97078,-2.31884
680,19.846,2.9679,-2.32069
682.5,19.9289,2.95913,-2.32505
685,20.0122,2.95074,-2.32898
687.5,20.0954,2.93704,-2.32874
690,20.1783,2.93192,-2.32741
692.5,20.2623,2.91669,-2.33112
695,20.3456,2.89746,-2.34874
697.5,20.4292,2.88471,-2.35325
700,20.5122,2.8727,-2.35453
702.5,20.5963,2.85277,-2.35878
705,20.6792,2.83823,-2.36118
707.5,20.7637,2.81227,-2.36188
710,20.8476,2.79723,-2.36057
712.5,20.9313,2.77165,-2.36188
715,21.0152,2.74552,-2.36477
717.5,21.0984,2.71625,-2.37294
720,21.1828,2.68067,-2.37727
722.5,21.2668,2.66471,-2.37822
725,21.351,2.62645,-2.37888
727.5,21.4351,2.60077,-2.37691
730,21.5191,2.56422,-2.37533
732.5,21.6028,2.51974,-2.38312
735,21.6868,2.47508,-2.38947
737.5,21.7706,2.43148,-2.38927
740,21.855,2.37668,-2.39059
742.5,21.9386,2.34256,-2.39447
745,22.0227,2.2924,-2.39443
747.5,22.1068,2.23258,-2.39632
750,22.1909,2.17919,-2.4013
752.5,22.2751,2.12862,-2.40639
755,22.3587,2.06709,-2.4081
757.5,22.4429,2.02712,-2.4094
760,22.5273,1.9664,-2.4094
762.5,22.6119,1.91347,-2.41035
765,22.696,1.84584,-2.41171
767.5,22.7803,1.79656,-2.41348
770,22.8646,1.73078,-2.41848
772.5,22.9488,1.67182,-2.42181
775,23.0332,1.60858,-2.42434
777.5,23.1175,1.55415,-2.42587
780,23.2018,1.49694,-2.42595
782.5,23.2861,1.43711,-2.42599
785,23.3705,1.3868,-2.42861
787.5,23.4549,1.33612,-2.42676
790,23.5398,1.29851,-2.42669