File: 01_Data/Protective_Hood/STA/N2/30K_min/Protective_Hood_STA_N2_30KData_240318_R1.csv
Temp./C,Time/min,DSC/(mW/mg),Mass loss/mg
60.0,0.0,1.40241,-0.0225303
62.3,0.113944,1.60033,-0.0208636
64.6,0.219616,1.77776,-0.0215273
66.9,0.319064,1.93589,-0.0220103
69.2,0.414373,2.07656,-0.0229226
71.5,0.505375,2.20178,-0.0249028
73.8,0.594334,2.32406,-0.022748
76.1,0.681694,2.43199,-0.0216258
78.4,0.76563,2.53303,-0.0250084
80.7,0.850349,2.61324,-0.0274188
83,0.932496,2.69936,-0.0279037
85.3,1.01411,2.78934,-0.0259058
87.6,1.0946,2.85848,-0.0257875
89.9,1.17463,2.93576,-0.0259087
92.2,1.25361,3.00216,-0.02591
94.5,1.33195,3.04558,-0.0282764
96.8,1.40953,3.09972,-0.0290882
99.1,1.487,3.12968,-0.0290278
101.4,1.56308,3.15899,-0.0286844
103.7,1.64065,3.17796,-0.030656
106,1.71684,3.19529,-0.0320637
108.3,1.79327,3.18548,-0.033971
110.6,1.8694,3.16439,-0.0333696
112.9,1.94517,3.15163,-0.0346904
115.2,2.02071,3.12963,-0.036006
117.5,2.09639,3.11456,-0.0373298
119.8,2.17187,3.09661,-0.0360131
122.1,2.24699,3.06743,-0.0332323
124.4,2.32245,3.04177,-0.03469
126.7,2.39711,3.02369,-0.03469
129,2.47174,3.01545,-0.03469
131.3,2.54582,2.99218,-0.036061
133.6,2.62038,2.98306,-0.0360057
135.9,2.69427,2.98484,-0.0350202
138.2,2.76806,2.98201,-0.0350196
140.5,2.84136,2.98258,-0.0363451
142.8,2.9153,2.99161,-0.0376499
145.1,2.98805,3.00016,-0.0361016
147.4,3.06117,3.02307,-0.0348001
149.7,3.13398,3.03976,-0.0362203
152,3.20666,3.05177,-0.0375117
154.3,3.27932,3.0601,-0.038759
156.6,3.352,3.09497,-0.03875
158.9,3.42442,3.10834,-0.0390914
161.2,3.49597,3.12144,-0.04007
163.5,3.56862,3.15254,-0.0405297
165.8,3.64053,3.17274,-0.0427
168.1,3.71245,3.18892,-0.039764
170.4,3.78409,3.21184,-0.0385578
172.7,3.85652,3.2343,-0.0385332
175,3.92805,3.25604,-0.0398496
177.3,3.99937,3.26428,-0.0411772
179.6,4.071,3.29168,-0.0411698
181.9,4.14119,3.31367,-0.0398581
184.2,4.21303,3.33877,-0.03919
186.5,4.28402,3.35803,-0.0391904
188.8,4.35402,3.38679,-0.0404924
191.1,4.42525,3.41001,-0.0431506
193.4,4.4959,3.42924,-0.0427841
195.7,4.56546,3.46366,-0.04216
198,4.63701,3.48302,-0.0421345
200.3,4.70686,3.5115,-0.0434578
202.6,4.77717,3.54435,-0.0432028
204.9,4.8477,3.5715,-0.0421443
207.2,4.91773,3.60096,-0.0447621
209.5,4.98795,3.63152,-0.0460053
211.8,5.05782,3.67853,-0.0491128
214.1,5.1283,3.73261,-0.0527167
216.4,5.19812,3.8056,-0.0552817
218.7,5.2685,3.93056,-0.0583333
221,5.33928,4.2018,-0.0604054
223.3,5.41093,4.79817,-0.0640204
225.6,5.48445,5.81826,-0.0696436
227.9,5.55403,5.77229,-0.0738078
230.2,5.62188,5.1861,-0.0810489
232.5,5.68987,4.71563,-0.0858901
234.8,5.75829,4.34565,-0.0908967
237.1,5.82706,4.09156,-0.0983564
239.4,5.89601,3.90285,-0.10239
241.7,5.96424,3.79224,-0.107994
244,6.03386,3.71035,-0.118747
246.3,6.10295,3.64729,-0.12849
248.6,6.17233,3.59748,-0.13844
250.9,6.24054,3.5553,-0.151148
253.2,6.31084,3.5219,-0.16031
255.5,6.37955,3.4776,-0.172579
257.8,6.4487,3.44762,-0.18806
260.1,6.51842,3.44101,-0.2018
262.4,6.58819,3.47541,-0.218603
264.7,6.6582,3.63445,-0.237097
267,6.72791,3.99633,-0.255519
269.3,6.80043,4.7165,-0.277757
271.6,6.87325,5.81028,-0.303233
273.9,6.94742,7.13629,-0.338009
276.2,7.02105,8.41683,-0.383884
278.5,7.09506,9.50265,-0.438244
280.8,7.1677,10.336,-0.498939
283.1,7.23985,10.9875,-0.565397
285.4,7.31158,11.5154,-0.638901
287.7,7.3825,11.8628,-0.716622
290,7.45285,11.9962,-0.796783
292.3,7.52208,11.7612,-0.873386
294.6,7.58908,10.9831,-0.955072
296.9,7.65406,9.57174,-1.02932
299.2,7.71742,7.72405,-1.08787
301.5,7.78063,5.91013,-1.13438
303.8,7.84548,4.47446,-1.16563
306.1,7.91064,3.49843,-1.18236
308.4,7.9779,2.87012,-1.19773
310.7,8.04543,2.4639,-1.21438
313,8.11328,2.21719,-1.22146
315.3,8.18144,2.0485,-1.22787
317.6,8.25096,1.92509,-1.2369
319.9,8.32016,1.84299,-1.24265
322.2,8.38922,1.76592,-1.25031
324.5,8.45871,1.71799,-1.2587
326.8,8.52803,1.65848,-1.26653
329.1,8.59738,1.62009,-1.27399
331.4,8.66722,1.57648,-1.2794
333.7,8.73694,1.56251,-1.28556
336,8.80629,1.53424,-1.29511
338.3,8.87603,1.50066,-1.30288
340.6,8.94603,1.48011,-1.30615
342.9,9.01628,1.4567,-1.31077
345.2,9.08684,1.42881,-1.3175
347.5,9.15561,1.40319,-1.32532
349.8,9.22636,1.38159,-1.33023
352.1,9.29689,1.35687,-1.33477
354.4,9.36694,1.34619,-1.34131
356.7,9.43745,1.32608,-1.34681
359,9.50878,1.32628,-1.35328
361.3,9.57948,1.31444,-1.36141
363.6,9.65003,1.32072,-1.36621
365.9,9.72031,1.32338,-1.36954
368.2,9.79144,1.33236,-1.3746
370.5,9.86202,1.34396,-1.37981
372.8,9.93317,1.36693,-1.38676
375.1,10.0044,1.37952,-1.39039
377.4,10.0762,1.40107,-1.39441
379.7,10.1471,1.42472,-1.39855
382,10.2185,1.45111,-1.40229
384.3,10.29,1.47596,-1.40647
386.6,10.3612,1.50238,-1.41332
388.9,10.4328,1.53677,-1.4188
391.2,10.5043,1.55082,-1.42617
393.5,10.5764,1.584,-1.4276
395.8,10.6478,1.61572,-1.43289
398.1,10.7191,1.64407,-1.43442
400.4,10.7911,1.66686,-1.43651
402.7,10.8632,1.69833,-1.43948
405,10.9349,1.72886,-1.44234
407.3,11.0072,1.76126,-1.44621
409.6,11.0792,1.78902,-1.44962
411.9,11.1506,1.819,-1.45475
414.2,11.2235,1.84761,-1.45848
416.5,11.2956,1.87881,-1.46283
418.8,11.3678,1.91881,-1.46883
421.1,11.4405,1.95102,-1.47165
423.4,11.5128,1.98716,-1.47471
425.7,11.5851,2.02453,-1.47496
428,11.6571,2.0556,-1.47789
430.3,11.7302,2.10279,-1.47839
432.6,11.8027,2.12028,-1.48315
434.9,11.8755,2.15543,-1.48637
437.2,11.9479,2.18523,-1.49113
439.5,12.0207,2.21296,-1.49674
441.8,12.0928,2.22956,-1.50164
444.1,12.1658,2.25656,-1.50482
446.4,12.2386,2.27076,-1.50959
448.7,12.3119,2.29163,-1.51457
451,12.3846,2.28776,-1.52094
453.3,12.4577,2.29843,-1.52342
455.6,12.5306,2.29019,-1.52875
457.9,12.6039,2.28612,-1.53232
460.2,12.6764,2.2719,-1.53679
462.5,12.7499,2.24704,-1.53973
464.8,12.823,2.22745,-1.54518
467.1,12.896,2.20405,-1.54918
469.4,12.9689,2.16719,-1.55491
471.7,13.0423,2.14195,-1.5595
474,13.1152,2.11548,-1.56383
476.3,13.1881,2.082,-1.56824
478.6,13.2617,2.05503,-1.57326
480.9,13.3353,2.02474,-1.57746
483.2,13.4085,1.98844,-1.58224
485.5,13.4811,1.96072,-1.58795
487.8,13.5549,1.93579,-1.59412
490.1,13.6286,1.91744,-1.59713
492.4,13.7024,1.88268,-1.60154
494.7,13.7756,1.86073,-1.60878
497,13.8492,1.84014,-1.61702
499.3,13.9229,1.81875,-1.62217
501.6,13.9961,1.80669,-1.63021
503.9,14.0704,1.78781,-1.63375
506.2,14.1442,1.77695,-1.63738
508.5,14.218,1.75973,-1.64442
510.8,14.2916,1.74741,-1.65381
513.1,14.3655,1.74026,-1.6595
515.4,14.4395,1.73004,-1.66687
517.7,14.5133,1.74064,-1.67339
520,14.5873,1.73771,-1.68043
522.3,14.6617,1.7473,-1.68809
524.6,14.7355,1.76082,-1.69759
526.9,14.81,1.76406,-1.70771
529.2,14.8841,1.77313,-1.71736
531.5,14.9585,1.7975,-1.72885
533.8,15.0326,1.81175,-1.73771
536.1,15.1069,1.82551,-1.7482
538.4,15.1814,1.84183,-1.75737
540.7,15.2563,1.86004,-1.7697
543,15.3304,1.86468,-1.78032
545.3,15.405,1.87496,-1.7937
547.6,15.48,1.87957,-1.80639
549.9,15.5546,1.88827,-1.82073
552.2,15.6293,1.88343,-1.83732
554.5,15.7038,1.87857,-1.8491
556.8,15.7788,1.87121,-1.86101
559.1,15.8536,1.8625,-1.87629
561.4,15.9282,1.84064,-1.89003
563.7,16.0033,1.82035,-1.90591
566,16.0781,1.80177,-1.91573
568.3,16.1529,1.784,-1.93092
570.6,16.2283,1.76065,-1.94523
572.9,16.3034,1.74087,-1.95734
575.2,16.3782,1.71263,-1.97025
577.5,16.4534,1.69242,-1.98488
579.8,16.5288,1.66538,-1.9989
582.1,16.6039,1.63684,-2.01163
584.4,16.6789,1.60819,-2.02523
586.7,16.7542,1.59047,-2.03755
589,16.8299,1.55686,-2.05238
591.3,16.9046,1.53501,-2.06528
593.6,16.9804,1.51155,-2.07829
595.9,17.0558,1.48144,-2.09032
598.2,17.1312,1.46123,-2.10148
600.5,17.2063,1.43213,-2.11661
602.8,17.282,1.40897,-2.12993
605.1,17.3573,1.39843,-2.14057
607.4,17.433,1.37568,-2.15195
609.7,17.5083,1.34989,-2.16217
612,17.5837,1.32419,-2.17342
614.3,17.6591,1.30809,-2.18705
616.6,17.7344,1.28922,-2.19955
618.9,17.8102,1.26687,-2.20895
621.2,17.8857,1.25324,-2.21977
623.5,17.9613,1.2269,-2.23091
625.8,18.0368,1.23522,-2.23945
628.1,18.1123,1.21782,-2.24843
630.4,18.1878,1.20467,-2.25454
632.7,18.2634,1.19095,-2.26276
635,18.3391,1.16651,-2.27201
637.3,18.4151,1.15285,-2.28103
639.6,18.4908,1.13783,-2.29041
641.9,18.5656,1.14228,-2.29702
644.2,18.6419,1.12882,-2.3015
646.5,18.7177,1.11722,-2.30866
648.8,18.7934,1.1088,-2.31961
651.1,18.8693,1.09877,-2.32497
653.4,18.945,1.09042,-2.33099
655.7,19.021,1.08343,-2.33589
658,19.0967,1.08436,-2.34093
660.3,19.1729,1.07918,-2.34682
662.6,19.249,1.07267,-2.35123
664.9,19.3247,1.08376,-2.35424
667.2,19.4009,1.0723,-2.35656
669.5,19.477,1.07303,-2.36075
671.8,19.5523,1.06767,-2.3649
674.1,19.629,1.07001,-2.36898
676.4,19.7052,1.06775,-2.36976
678.7,19.7812,1.0569,-2.37309
681,19.8574,1.05894,-2.37718
683.3,19.9334,1.05243,-2.37987
685.6,20.0095,1.04147,-2.38482
687.9,20.0859,1.03448,-2.38966
690.2,20.1621,1.03598,-2.39267
692.5,20.2386,1.02957,-2.3966
694.8,20.3145,1.02172,-2.40095
697.1,20.3908,1.00708,-2.40577
699.4,20.4673,1.00395,-2.40647
701.7,20.5436,0.986602,-2.40722
704,20.6195,0.97737,-2.40858
706.3,20.6961,0.967602,-2.41126
708.6,20.7728,0.960742,-2.41378
710.9,20.8492,0.945183,-2.41633
713.2,20.926,0.928805,-2.42092
715.5,21.0027,0.913422,-2.42272
717.8,21.0794,0.890394,-2.427
720.1,21.1561,0.876967,-2.42873
722.4,21.2327,0.854377,-2.42868
724.7,21.3092,0.76895,-2.43148
727,21.3858,0.758762,-2.43421
729.3,21.4624,0.736646,-2.43661
731.6,21.5398,0.715442,-2.43675
733.9,21.6166,0.686844,-2.43674
736.2,21.6933,0.662656,-2.43807
738.5,21.7702,0.638246,-2.441
740,21.8206,0.620458,-2.44305