File: 01_Data/Protective_Hood/STA/N2/30K_min/Protective_Hood_STA_N2_30KData_250611_R3.csv
Temp./C,Time/min,DSC/(mW/mg),Mass loss/mg
60.0,0.0,1.3472,-0.0165945
62.5,0.146208,1.56571,-0.017859
65,0.281402,1.76418,-0.0178584
67.5,0.406978,1.93251,-0.0180639
70,0.524864,2.08926,-0.0200757
72.5,0.6403,2.23828,-0.0210318
75,0.750745,2.38181,-0.0218601
77.5,0.858333,2.52683,-0.0216819
80,0.963387,2.6688,-0.0241822
82.5,1.06369,2.80298,-0.0229867
85,1.16526,2.94008,-0.0252259
87.5,1.26482,3.08081,-0.0252672
90,1.36167,3.21324,-0.0274854
92.5,1.45748,3.35193,-0.029552
95,1.55167,3.47162,-0.030277
97.5,1.64508,3.59812,-0.0317042
100,1.73735,3.69622,-0.035153
102.5,1.82808,3.80395,-0.036756
105,1.91902,3.89992,-0.040677
107.5,2.00876,3.98036,-0.0407828
110,2.09822,4.05376,-0.0422316
112.5,2.18691,4.09377,-0.042056
115,2.27492,4.12582,-0.0461069
117.5,2.36231,4.1526,-0.0473405
120,2.4492,4.1694,-0.0497276
122.5,2.53536,4.16561,-0.0504558
125,2.62097,4.15221,-0.0526898
127.5,2.70602,4.13151,-0.0540788
130,2.79022,4.11016,-0.0561285
132.5,2.87328,4.08987,-0.0562893
135,2.95659,4.06511,-0.0563451
137.5,3.03916,4.03892,-0.0576418
140,3.1214,4.0244,-0.0589602
142.5,3.20349,3.99324,-0.0589532
145,3.2847,3.96864,-0.0602699
147.5,3.36537,3.95614,-0.0615777
150,3.44607,3.95626,-0.0616328
152.5,3.52621,3.94535,-0.0603416
155,3.60609,3.93896,-0.0615901
157.5,3.68561,3.92932,-0.0616024
160,3.76512,3.92771,-0.0616026
162.5,3.84406,3.93371,-0.0629402
165,3.92334,3.94358,-0.0629099
167.5,4.00147,3.96082,-0.0642159
170,4.0802,3.97627,-0.0642107
172.5,4.15838,3.98751,-0.0628997
175,4.23676,4.01506,-0.0642203
177.5,4.31446,4.03465,-0.06422
180,4.39194,4.06545,-0.0640575
182.5,4.46885,4.09628,-0.0641515
185,4.54609,4.12561,-0.06554
187.5,4.62295,4.15247,-0.06554
190,4.69914,4.18733,-0.06554
192.5,4.77542,4.21156,-0.0655397
195,4.85159,4.25487,-0.0671016
197.5,4.92763,4.28956,-0.0681562
200,5.00349,4.33021,-0.0681733
202.5,5.079,4.37689,-0.0708104
205,5.15471,4.41632,-0.0718012
207.5,5.22993,4.47215,-0.0732052
210,5.30558,4.52611,-0.0747769
212.5,5.38092,4.59872,-0.0768739
215,5.45613,4.69916,-0.0791616
217.5,5.53196,4.86641,-0.0819003
220,5.60825,5.19579,-0.0845788
222.5,5.68553,5.91812,-0.0874887
225,5.76831,8.115,-0.0924807
227.5,5.84611,8.98954,-0.0958521
230,5.91567,7.36858,-0.10067
232.5,5.98672,6.34784,-0.10625
235,6.05886,5.69,-0.111694
237.5,6.13199,5.30389,-0.118749
240,6.20576,5.07152,-0.123621
242.5,6.27935,4.93259,-0.1315
245,6.35341,4.85471,-0.140614
247.5,6.42747,4.80605,-0.150374
250,6.50151,4.79724,-0.161292
252.5,6.57555,4.79498,-0.174853
255,6.64987,4.84822,-0.188731
257.5,6.72472,4.99369,-0.206284
260,6.80032,5.42433,-0.228676
262.5,6.87751,6.3831,-0.25736
265,6.95757,8.14137,-0.292715
267.5,7.03975,10.4896,-0.34166
270,7.12272,12.9177,-0.409044
272.5,7.2039,14.9878,-0.494989
275,7.28441,16.6491,-0.603891
277.5,7.36223,17.7591,-0.73066
280,7.43812,18.1271,-0.875574
282.5,7.51047,17.6018,-1.03025
285,7.58002,16.205,-1.18894
287.5,7.64685,13.9314,-1.33907
290,7.71093,10.9591,-1.46053
292.5,7.77479,7.80556,-1.5699
295,7.8399,5.24017,-1.65468
297.5,7.90772,3.56462,-1.70959
300,7.97815,2.61433,-1.7485
302.5,8.05022,2.09882,-1.77705
305,8.12317,1.83435,-1.79886
307.5,8.19658,1.68422,-1.81606
310,8.26991,1.60541,-1.83352
312.5,8.3439,1.52941,-1.84925
315,8.41797,1.48896,-1.86171
317.5,8.4917,1.4311,-1.87362
320,8.56601,1.37267,-1.88723
322.5,8.63985,1.32803,-1.89933
325,8.71446,1.27614,-1.90969
327.5,8.78847,1.21455,-1.92261
330,8.86287,1.17025,-1.93573
332.5,8.93749,1.12084,-1.94782
335,9.01195,1.06672,-1.96016
337.5,9.08612,1.01061,-1.97123
340,9.16068,0.97059,-1.98277
342.5,9.23527,0.927839,-1.99531
345,9.30975,0.882025,-2.00808
347.5,9.38443,0.847476,-2.01848
350,9.45958,0.816909,-2.03172
352.5,9.53435,0.800397,-2.04196
355,9.60926,0.790654,-2.05375
357.5,9.68461,0.791346,-2.06582
360,9.7596,0.802547,-2.07625
362.5,9.83491,0.833216,-2.0868
365,9.91014,0.869878,-2.09753
367.5,9.98588,0.90621,-2.10718
370,10.0613,0.954124,-2.11843
372.5,10.1369,1.01414,-2.12615
375,10.213,1.06819,-2.13646
377.5,10.2887,1.12918,-2.14501
380,10.3645,1.18911,-2.15287
382.5,10.4405,1.24903,-2.16044
385,10.5168,1.31515,-2.16929
387.5,10.5929,1.37263,-2.17597
390,10.6692,1.42742,-2.18323
392.5,10.7449,1.46677,-2.19014
395,10.8216,1.51416,-2.19662
397.5,10.8982,1.56001,-2.20601
400,10.9747,1.59692,-2.21175
402.5,11.0513,1.64006,-2.21867
405,11.128,1.68411,-2.22263
407.5,11.2045,1.71495,-2.22956
410,11.2812,1.75098,-2.23619
412.5,11.3578,1.77899,-2.24102
415,11.4349,1.79541,-2.24892
417.5,11.5117,1.81612,-2.25249
420,11.5886,1.83129,-2.25818
422.5,11.6658,1.84052,-2.26442
425,11.7425,1.85643,-2.27034
427.5,11.8198,1.86925,-2.27501
430,11.8969,1.8739,-2.28029
432.5,11.9742,1.89179,-2.28544
435,12.0515,1.89723,-2.29156
437.5,12.1288,1.9058,-2.29774
440,12.2064,1.91552,-2.29989
442.5,12.2839,1.92755,-2.30604
445,12.3616,1.94129,-2.31103
447.5,12.4392,1.94636,-2.31641
450,12.517,1.973,-2.32181
452.5,12.5952,1.98026,-2.3267
455,12.6729,1.99835,-2.33359
457.5,12.7512,2.02806,-2.33935
460,12.8293,2.04059,-2.34402
462.5,12.9076,2.07687,-2.34886
465,12.9857,2.0947,-2.35515
467.5,13.064,2.12209,-2.35983
470,13.1421,2.15039,-2.36605
472.5,13.2206,2.17439,-2.37178
475,13.2991,2.20762,-2.3773
477.5,13.3774,2.2236,-2.38396
480,13.456,2.26063,-2.38814
482.5,13.5347,2.27954,-2.39351
485,13.6134,2.31004,-2.40048
487.5,13.6923,2.32359,-2.40644
490,13.7708,2.33678,-2.4109
492.5,13.8495,2.34914,-2.4171
495,13.9281,2.34929,-2.4228
497.5,14.0071,2.35181,-2.42783
500,14.086,2.3398,-2.43494
502.5,14.1649,2.31599,-2.43969
505,14.2439,2.29304,-2.44383
507.5,14.3228,2.24104,-2.45041
510,14.4016,2.20432,-2.45507
512.5,14.4807,2.15773,-2.45949
515,14.5593,2.08801,-2.46379
517.5,14.6387,2.03374,-2.4668
520,14.7176,1.96905,-2.47293
522.5,14.797,1.89618,-2.47648
525,14.8763,1.84107,-2.48064
527.5,14.9554,1.79141,-2.48495
530,15.0347,1.73533,-2.48659
532.5,15.1142,1.69058,-2.48921
535,15.1937,1.64903,-2.49296
537.5,15.2733,1.61797,-2.4958
540,15.3529,1.60046,-2.49853
542.5,15.4326,1.58581,-2.50137
545,15.5126,1.58767,-2.50302
547.5,15.5922,1.57423,-2.50687
550,15.6719,1.56871,-2.50872
552.5,15.7518,1.56737,-2.50996
555,15.832,1.55786,-2.51238
557.5,15.9118,1.54524,-2.51565
560,15.9917,1.52465,-2.51679
562.5,16.0719,1.52374,-2.51952
565,16.1518,1.5164,-2.52083
567.5,16.2323,1.51224,-2.52367
570,16.3122,1.52331,-2.52659
572.5,16.3927,1.52216,-2.5279
575,16.4729,1.52069,-2.52947
577.5,16.5531,1.52364,-2.53353
580,16.6337,1.52868,-2.53351
582.5,16.7139,1.52033,-2.5366
585,16.7945,1.51844,-2.53851
587.5,16.8748,1.50184,-2.53953
590,16.9557,1.50124,-2.54015
592.5,17.0363,1.51149,-2.54253
595,17.117,1.50071,-2.54531
597.5,17.1976,1.50782,-2.54631
600,17.2785,1.50255,-2.5474
602.5,17.3597,1.50716,-2.54909
605,17.4404,1.52369,-2.55319
607.5,17.5216,1.53064,-2.553
610,17.6025,1.53026,-2.55432
612.5,17.6837,1.54325,-2.55433
615,17.765,1.55128,-2.55707
617.5,17.846,1.56126,-2.55967
620,17.9272,1.57446,-2.56102
622.5,18.0086,1.58366,-2.56232
625,18.0897,1.59631,-2.56506
627.5,18.1711,1.61001,-2.56659
630,18.2525,1.62287,-2.56904
632.5,18.3337,1.64116,-2.56906
635,18.4151,1.6597,-2.5703
637.5,18.4969,1.67357,-2.57309
640,18.5785,1.68843,-2.5744
642.5,18.6596,1.70971,-2.57445
645,18.7413,1.72347,-2.57857
647.5,18.8228,1.74033,-2.57858
650,18.9043,1.73617,-2.58033
652.5,18.9861,1.76993,-2.58253
655,19.0679,1.78819,-2.58327
657.5,19.1496,1.7954,-2.58642
660,19.2308,1.80894,-2.58924
662.5,19.3132,1.82503,-2.58923
665,19.3953,1.84505,-2.5912
667.5,19.4772,1.86275,-2.59383
670,19.559,1.8812,-2.59531
672.5,19.6408,1.89843,-2.59653
675,19.7227,1.9244,-2.5984
677.5,19.8049,1.92191,-2.59995
680,19.887,1.94943,-2.60241
682.5,19.969,1.95909,-2.6038
685,20.0508,1.98168,-2.60634
687.5,20.1326,2.00277,-2.60664
690,20.2147,2.01117,-2.60894
692.5,20.2972,2.01727,-2.61241
695,20.3794,2.01493,-2.61443
697.5,20.4615,2.04559,-2.61585
700,20.5438,2.05978,-2.61776
702.5,20.6262,2.05505,-2.61998
705,20.7085,2.03755,-2.62275
707.5,20.7908,2.03143,-2.62275
710,20.8734,2.04016,-2.62401
712.5,20.9553,2.03551,-2.62678
715,21.0386,2.01336,-2.62961
717.5,21.1212,2.02459,-2.63226
720,21.2039,2.02207,-2.63436
722.5,21.2867,1.98887,-2.63512
725,21.3694,1.95415,-2.63521
727.5,21.4524,1.92748,-2.63738
730,21.5349,1.88253,-2.64129
732.5,21.6176,1.83569,-2.64352
735,21.7006,1.77204,-2.64324
737.5,21.7835,1.73379,-2.64535
740,21.8654,1.7054,-2.65098
742.5,21.9492,1.67296,-2.6549
745,22.0318,1.67156,-2.65584
747.5,22.115,1.65352,-2.65724
750,22.1979,1.62757,-2.6586
752.5,22.2803,1.62078,-2.66134
755,22.3632,1.59298,-2.66414
757.5,22.4462,1.56253,-2.66892
760,22.5288,1.52544,-2.66535
762.5,22.6115,1.51306,-2.66816
765,22.6944,1.4854,-2.66954
767.5,22.7772,1.45865,-2.67323
770,22.8603,1.43123,-2.67518
772.5,22.9431,1.39929,-2.67927
775,23.0261,1.36582,-2.681
777.5,23.109,1.35368,-2.68384
780,23.1918,1.32364,-2.68551
782.5,23.2748,1.27972,-2.68663
785,23.3576,1.23357,-2.68946
787.5,23.4406,1.20651,-2.69109
790,23.5228,1.17338,-2.69321