File: 01_Data/Protective_Hood/STA/N2/30K_min/Protective_Hood_STA_N2_30KData_250623_R4.csv
Temp./C,Time/min,DSC/(mW/mg),Mass loss/mg
60.0,0.0,1.21763,-0.0253221
62.5,0.149679,1.42408,-0.0237322
65,0.283336,1.61101,-0.0245848
67.5,0.410591,1.77784,-0.0265435
70,0.5309,1.9383,-0.0259014
72.5,0.645808,2.07163,-0.0323031
75,0.756764,2.20684,-0.0261345
77.5,0.864941,2.33685,-0.0267145
80,0.969131,2.46639,-0.0271595
82.5,1.07184,2.57217,-0.0279365
85,1.17341,2.69035,-0.0304392
87.5,1.27206,2.81962,-0.0300021
90,1.36889,2.9444,-0.0334612
92.5,1.4644,3.05972,-0.0338062
95,1.55896,3.18073,-0.0350291
97.5,1.65261,3.29747,-0.0363763
100,1.74552,3.40343,-0.0382218
102.5,1.83633,3.51767,-0.0408675
105,1.92725,3.60058,-0.0422762
107.5,2.01764,3.67474,-0.0435824
110,2.10683,3.74037,-0.0462877
112.5,2.19548,3.79045,-0.0461966
115,2.28356,3.82888,-0.0475326
117.5,2.37109,3.84804,-0.0488818
120,2.45823,3.86292,-0.0525887
122.5,2.54424,3.8596,-0.0539042
125,2.62888,3.84572,-0.05523
127.5,2.71451,3.83795,-0.0565869
130,2.79879,3.81282,-0.0578602
132.5,2.88291,3.77707,-0.05786
135,2.96588,3.74571,-0.0591747
137.5,3.04842,3.73329,-0.0605906
140,3.1304,3.69647,-0.0618107
142.5,3.2119,3.66684,-0.0618099
145,3.29301,3.65092,-0.0631228
147.5,3.37394,3.62185,-0.0644507
150,3.45422,3.61739,-0.0644888
152.5,3.5348,3.58871,-0.065442
155,3.61371,3.55119,-0.0675234
157.5,3.69417,3.55467,-0.0662071
160,3.77356,3.54459,-0.0655251
162.5,3.85273,3.53679,-0.0642243
165,3.93194,3.529,-0.0668594
167.5,4.01071,3.532,-0.0668607
170,4.08972,3.54159,-0.0681803
172.5,4.16802,3.55812,-0.0681802
175,4.24647,3.58036,-0.0691722
177.5,4.32424,3.59595,-0.0691686
180,4.40245,3.60757,-0.0686439
182.5,4.47983,3.63042,-0.068463
185,4.55713,3.66067,-0.0704903
187.5,4.63426,3.69229,-0.07049
190,4.7108,3.715,-0.07049
192.5,4.78743,3.74791,-0.0704901
195,4.86357,3.79003,-0.0731033
197.5,4.94016,3.8153,-0.0744261
200,5.01617,3.84274,-0.07444
202.5,5.09166,3.87606,-0.0744308
205,5.16803,3.93005,-0.0757668
207.5,5.24365,3.96492,-0.0764756
210,5.31922,4.01413,-0.0769607
212.5,5.39492,4.08337,-0.0783905
215,5.47049,4.18102,-0.0809603
217.5,5.54632,4.35123,-0.0823491
220,5.62227,4.66717,-0.0870119
222.5,5.6999,5.38155,-0.0937675
225,5.78188,7.27819,-0.0925869
227.5,5.86038,8.33473,-0.0957738
230,5.93022,6.76939,-0.098376
232.5,6.00148,5.75682,-0.105231
235,6.07408,5.11468,-0.10984
237.5,6.14673,4.72235,-0.114079
240,6.22056,4.48523,-0.120271
242.5,6.29406,4.33869,-0.128816
245,6.36853,4.2631,-0.136049
247.5,6.44235,4.20971,-0.145367
250,6.51646,4.17449,-0.157834
252.5,6.5908,4.16882,-0.170402
255,6.66503,4.20365,-0.182336
257.5,6.73933,4.35644,-0.194244
260,6.81475,4.75276,-0.214143
262.5,6.89245,5.678,-0.23894
265,6.97242,7.37906,-0.273958
267.5,7.0546,9.64666,-0.322322
270,7.13683,11.9115,-0.386832
272.5,7.21765,13.8571,-0.468841
275,7.29761,15.381,-0.572866
277.5,7.37538,16.3909,-0.696952
280,7.45133,16.7975,-0.841359
282.5,7.52414,16.3605,-0.99994
285,7.59349,15.0051,-1.16187
287.5,7.65985,12.7479,-1.30241
290,7.7238,9.72714,-1.43409
292.5,7.78718,6.58486,-1.54155
295,7.8531,4.09975,-1.62501
297.5,7.92165,2.57368,-1.6817
300,7.9917,1.76202,-1.71834
302.5,8.06459,1.3397,-1.74544
305,8.13757,1.14243,-1.76566
307.5,8.21129,1.03669,-1.78239
310,8.28482,0.987232,-1.79855
312.5,8.35899,0.938483,-1.81525
315,8.43284,0.903646,-1.82726
317.5,8.50714,0.86808,-1.84083
320,8.58132,0.829327,-1.85316
322.5,8.65527,0.782279,-1.86596
325,8.72965,0.735644,-1.87618
327.5,8.80393,0.688518,-1.88778
330,8.87804,0.627546,-1.89836
332.5,8.95239,0.580276,-1.91233
335,9.02658,0.532675,-1.92412
337.5,9.10142,0.491304,-1.93478
340,9.17572,0.448098,-1.94661
342.5,9.2504,0.418273,-1.95918
345,9.32544,0.37584,-1.9718
347.5,9.40001,0.343884,-1.98255
350,9.47507,0.306527,-1.99451
352.5,9.54982,0.28863,-2.00698
355,9.62477,0.27487,-2.0175
357.5,9.70005,0.276574,-2.0269
360,9.7752,0.277393,-2.03786
362.5,9.85061,0.320534,-2.04815
365,9.92615,0.34795,-2.05819
367.5,10.0016,0.392737,-2.0698
370,10.0775,0.444132,-2.0762
372.5,10.1528,0.494101,-2.08716
375,10.2289,0.549628,-2.09494
377.5,10.3051,0.595937,-2.10527
380,10.3812,0.653564,-2.11216
382.5,10.4571,0.722611,-2.12066
385,10.5331,0.762556,-2.12721
387.5,10.6093,0.813832,-2.13421
390,10.6856,0.849849,-2.14202
392.5,10.7619,0.88787,-2.15025
395,10.8382,0.922226,-2.15364
397.5,10.9149,0.962691,-2.1621
400,10.9915,0.985144,-2.16929
402.5,11.0682,1.01832,-2.17296
405,11.1443,1.03961,-2.18017
407.5,11.2215,1.06259,-2.18593
410,11.2985,1.07759,-2.19182
412.5,11.3751,1.11307,-2.1961
415,11.4518,1.1197,-2.20121
417.5,11.529,1.13613,-2.20739
420,11.6059,1.15137,-2.21249
422.5,11.683,1.16733,-2.21872
425,11.7601,1.1763,-2.22272
427.5,11.8374,1.1821,-2.22745
430,11.9146,1.18315,-2.23323
432.5,11.9919,1.19413,-2.23862
435,12.0694,1.20391,-2.24374
437.5,12.1466,1.21233,-2.24892
440,12.2243,1.21648,-2.25642
442.5,12.3017,1.22709,-2.26236
445,12.3793,1.23944,-2.2633
447.5,12.4569,1.24905,-2.26922
450,12.5348,1.2647,-2.27413
452.5,12.6124,1.28438,-2.28028
455,12.6906,1.30277,-2.28522
457.5,12.7686,1.32526,-2.29324
460,12.8467,1.35512,-2.29506
462.5,12.9246,1.37052,-2.30022
465,13.0027,1.40897,-2.30558
467.5,13.0812,1.434,-2.30994
470,13.1591,1.46599,-2.31553
472.5,13.2375,1.49889,-2.32074
475,13.3161,1.53443,-2.32822
477.5,13.3947,1.56913,-2.33397
480,13.4735,1.59433,-2.3392
482.5,13.5515,1.6177,-2.34492
485,13.6307,1.63715,-2.34926
487.5,13.7094,1.65912,-2.35523
490,13.7883,1.68661,-2.35959
492.5,13.8671,1.69938,-2.36624
495,13.946,1.71152,-2.37089
497.5,14.0249,1.69059,-2.37611
500,14.1039,1.6807,-2.38389
502.5,14.1829,1.67089,-2.39016
505,14.2617,1.64484,-2.39586
507.5,14.341,1.61207,-2.4006
510,14.42,1.57018,-2.40234
512.5,14.4989,1.53403,-2.40869
515,14.5784,1.47911,-2.41428
517.5,14.6573,1.42416,-2.41836
520,14.7366,1.37688,-2.42187
522.5,14.8158,1.31373,-2.42546
525,14.8947,1.2561,-2.42946
527.5,14.9743,1.21145,-2.43269
530,15.0536,1.17286,-2.43518
532.5,15.1332,1.13178,-2.43722
535,15.2124,1.09671,-2.4405
537.5,15.2924,1.07913,-2.44413
540,15.3723,1.05031,-2.44694
542.5,15.4518,1.03832,-2.44979
545,15.5317,1.02004,-2.45123
547.5,15.6118,1.01878,-2.45385
550,15.6916,1.00769,-2.4559
552.5,15.7716,1.01349,-2.45829
555,15.8514,1.00356,-2.4605
557.5,15.9319,1.0073,-2.46288
560,16.0114,0.998649,-2.46614
562.5,16.0917,1.00049,-2.46994
565,16.1721,1.00022,-2.47126
567.5,16.2523,1.00087,-2.47146
570,16.3326,1.01437,-2.47421
572.5,16.4127,1.00878,-2.47593
575,16.493,1.01036,-2.47745
577.5,16.5733,1.01556,-2.47912
580,16.6538,1.01467,-2.48114
582.5,16.7336,1.01456,-2.48409
585,16.8147,1.03033,-2.48417
587.5,16.8953,1.04177,-2.4848
590,16.9756,1.05157,-2.48549
592.5,17.0566,1.04331,-2.48834
595,17.137,1.06368,-2.48962
597.5,17.2179,1.05949,-2.49103
600,17.2986,1.0673,-2.49259
602.5,17.3793,1.07016,-2.49563
605,17.4604,1.08095,-2.498
607.5,17.5412,1.0835,-2.50032
610,17.6222,1.08765,-2.50312
612.5,17.7031,1.10183,-2.50449
615,17.7844,1.10887,-2.50523
617.5,17.8656,1.11581,-2.50656
620,17.9466,1.12917,-2.50831
622.5,18.0282,1.14031,-2.51063
625,18.1094,1.14684,-2.5097
627.5,18.1909,1.17212,-2.51238
630,18.2725,1.18264,-2.51438
632.5,18.3535,1.1987,-2.51684
635,18.4347,1.21909,-2.51762
637.5,18.5165,1.23613,-2.5203
640,18.5979,1.23852,-2.52025
642.5,18.6795,1.2631,-2.52164
645,18.7611,1.27925,-2.52429
647.5,18.8427,1.30048,-2.52555
650,18.9244,1.31263,-2.52687
652.5,19.0063,1.34347,-2.52951
655,19.0876,1.37361,-2.53098
657.5,19.1694,1.39901,-2.53234
660,19.2512,1.41772,-2.53479
662.5,19.3329,1.43387,-2.53785
665,19.4146,1.43299,-2.53919
667.5,19.4965,1.46654,-2.54048
670,19.5784,1.46777,-2.54176
672.5,19.6601,1.50499,-2.54181
675,19.742,1.51556,-2.54452
677.5,19.824,1.5517,-2.54609
680,19.9058,1.57019,-2.54976
682.5,19.9878,1.58141,-2.55024
685,20.0698,1.60734,-2.55149
687.5,20.1518,1.65008,-2.5552
690,20.2337,1.66123,-2.55715
692.5,20.3157,1.68444,-2.55802
695,20.3975,1.70754,-2.55851
697.5,20.4796,1.72531,-2.55979
700,20.5618,1.74984,-2.56275
702.5,20.6434,1.76197,-2.56411
705,20.726,1.77769,-2.56544
707.5,20.8084,1.78971,-2.56882
710,20.8905,1.79851,-2.57101
712.5,20.9725,1.83034,-2.57483
715,21.0551,1.84949,-2.57494
717.5,21.1374,1.86755,-2.57647
720,21.2198,1.88775,-2.57899
722.5,21.3025,1.9145,-2.58175
725,21.3847,1.92582,-2.58451
727.5,21.4672,1.9472,-2.5843
730,21.55,1.96897,-2.58585
732.5,21.6325,1.97508,-2.58873
735,21.7155,2.00271,-2.59166
737.5,21.7981,1.99919,-2.59304
740,21.8807,1.99995,-2.59577
742.5,21.9633,2.00577,-2.59849
745,22.0462,2.00456,-2.60062
747.5,22.1288,2.00444,-2.60287
750,22.211,1.99441,-2.60412
752.5,22.2942,1.98793,-2.60666
755,22.3771,1.97451,-2.60883
757.5,22.46,1.95492,-2.61142
760,22.5428,1.91684,-2.61433
762.5,22.6257,1.9003,-2.61569
765,22.7082,1.86118,-2.61854
767.5,22.7912,1.80156,-2.62146
770,22.874,1.68844,-2.62481
772.5,22.9566,1.58482,-2.62502
775,23.0398,1.49114,-2.62635
777.5,23.1226,1.40724,-2.62903
780,23.2052,1.33584,-2.63182
782.5,23.2884,1.27421,-2.63302
785,23.3712,1.20245,-2.63622
787.5,23.4538,1.144,-2.63754
790,23.5368,1.09296,-2.63973