File: 01_Data/Helmet_Tetrahedron/STA/N2/30K_min/Helmet_Tetrahedron_STA_N2_30KData_250509_R2.csv
Temp./C,Time/min,DSC/(mW/mg),Mass loss/mg
35.0,0.0,1.05339,-0.00798018
37.4,0.148207,1.26116,-0.00787867
39.8,0.283394,1.42979,-0.00693021
42.2,0.408925,1.56422,-0.00745079
44.6,0.528255,1.71435,-0.004775
47,0.641,1.83143,-0.00837394
49.4,0.75228,1.93732,-0.00754209
51.8,0.859292,2.03373,-0.00848877
54.2,0.963113,2.1395,-0.0075578
56.6,1.06473,2.23947,-0.00899508
59,1.16496,2.33277,-0.00936669
61.4,1.26295,2.40991,-0.0101827
63.8,1.3591,2.46246,-0.00849367
66.2,1.4535,2.49297,-0.010574
68.6,1.5472,2.51226,-0.0111174
71,1.63955,2.5246,-0.0103695
73.4,1.73141,2.53431,-0.0103956
75.8,1.82254,2.55115,-0.0105942
78.2,1.91288,2.59739,-0.0113586
80.6,2.00234,2.62558,-0.0116229
83,2.09119,2.65459,-0.0105601
85.4,2.17858,2.69871,-0.01138
87.8,2.26579,2.73107,-0.0111198
90.2,2.35212,2.79495,-0.0121317
92.6,2.43703,2.83863,-0.0120446
95,2.52186,2.88779,-0.0116103
97.4,2.60626,2.94129,-0.0105894
99.8,2.68962,2.9847,-0.0119705
102.2,2.77225,3.0256,-0.0132819
104.6,2.85413,3.0629,-0.0145833
107,2.93696,3.09951,-0.0132075
109.4,3.01862,3.13305,-0.0131712
111.8,3.09971,3.17596,-0.0131716
114.2,3.18125,3.20968,-0.0150256
116.6,3.26214,3.25259,-0.0158044
119,3.34244,3.28045,-0.0144896
121.4,3.42237,3.31048,-0.0144996
123.8,3.50192,3.34149,-0.0158099
126.2,3.58128,3.38159,-0.0171288
128.6,3.6599,3.40391,-0.0158105
131,3.73769,3.43571,-0.0157658
133.4,3.81575,3.46727,-0.0158064
135.8,3.89324,3.49754,-0.0170577
138.2,3.97046,3.53134,-0.0153627
140.6,4.04719,3.55276,-0.0166802
143,4.12395,3.58822,-0.0180068
145.4,4.20012,3.60597,-0.018
147.8,4.27586,3.62572,-0.0207365
150.2,4.35169,3.65239,-0.02064
152.6,4.42707,3.66703,-0.02064
155,4.50191,3.68362,-0.02064
157.4,4.57679,3.70972,-0.02064
159.8,4.65141,3.72931,-0.0206396
162.2,4.72622,3.7568,-0.0232803
164.6,4.80003,3.77538,-0.0229513
167,4.87462,3.80047,-0.0240874
169.4,4.94883,3.84572,-0.0227052
171.8,5.02278,3.90961,-0.0246769
174.2,5.09713,4.00568,-0.0259426
176.6,5.17101,4.04015,-0.0259473
179,5.24399,4.04479,-0.0269
181.4,5.31707,4.03975,-0.0269
183.8,5.38985,4.05681,-0.0268956
186.2,5.46303,4.06332,-0.0272258
188.6,5.5355,4.06518,-0.0272316
191,5.60798,4.07679,-0.028543
193.4,5.68033,4.08193,-0.0298552
195.8,5.7513,4.09191,-0.0309385
198.2,5.82423,4.11128,-0.0315482
200.6,5.89584,4.11329,-0.0315047
203,5.96789,4.1124,-0.03249
205.4,6.03953,4.09454,-0.0324883
207.8,6.1112,4.0917,-0.0331529
210.2,6.18272,4.10508,-0.0337449
212.6,6.25411,4.10569,-0.0344696
215,6.32574,4.11377,-0.0357976
217.4,6.39683,4.11722,-0.0370983
219.8,6.4685,4.1228,-0.0384218
222.2,6.53991,4.12164,-0.0397394
224.6,6.61069,4.13164,-0.0410815
227,6.68212,4.14233,-0.043862
229.4,6.75323,4.13149,-0.0446453
231.8,6.82439,4.14017,-0.045675
234.2,6.89501,4.13423,-0.0476793
236.6,6.96625,4.12497,-0.0493009
239,7.03676,4.11552,-0.0524661
241.4,7.10799,4.08046,-0.0541252
243.8,7.17833,4.03786,-0.0569427
246.2,7.2492,4.00153,-0.0602384
248.6,7.31989,3.9557,-0.0622389
251,7.39041,3.90086,-0.067082
253.4,7.46099,3.82867,-0.072379
255.8,7.53115,3.755,-0.0758847
258.2,7.60182,3.66973,-0.0815453
260.6,7.67192,3.56588,-0.0869276
263,7.74231,3.4434,-0.0934334
265.4,7.81176,3.29478,-0.100545
267.8,7.88324,3.4499,-0.109037
270.2,7.95575,4.05981,-0.119334
272.6,8.02767,4.44742,-0.133539
275,8.09949,4.67811,-0.150836
277.4,8.17066,4.85057,-0.168303
279.8,8.24139,4.94416,-0.183441
282.2,8.3127,5.06978,-0.202964
284.6,8.38396,5.1674,-0.224721
287,8.45497,5.30695,-0.245592
289.4,8.52651,5.46037,-0.268753
291.8,8.59776,5.62682,-0.297372
294.2,8.66933,5.81812,-0.327087
296.6,8.74114,6.04671,-0.363817
299,8.81293,6.32242,-0.404833
301.4,8.88523,6.62806,-0.448925
303.8,8.95726,6.9807,-0.500163
306.2,9.02981,7.36893,-0.561452
308.6,9.10166,7.78284,-0.630725
311,9.17451,8.20943,-0.711146
313.4,9.24709,8.61862,-0.798087
315.8,9.31916,8.95798,-0.898369
318.2,9.39073,9.20254,-1.00651
320.6,9.4624,9.3368,-1.12721
323,9.53341,9.34698,-1.2511
325.4,9.60466,9.2277,-1.3793
327.8,9.67521,9.00309,-1.50933
330.2,9.74552,8.67687,-1.64008
332.6,9.81561,8.26059,-1.76352
335,9.88569,7.84216,-1.87874
337.4,9.95606,7.43916,-1.98777
339.8,10.0265,7.04025,-2.0909
342.2,10.0963,6.57301,-2.18184
344.6,10.166,5.96179,-2.25954
347,10.2357,5.3141,-2.32909
349.4,10.305,4.68372,-2.39062
351.8,10.3746,4.07842,-2.4436
354.2,10.4443,3.52074,-2.48932
356.6,10.5143,3.00958,-2.52811
359,10.5847,2.54885,-2.56213
361.4,10.6552,2.1502,-2.59353
363.8,10.7255,1.79212,-2.61337
366.2,10.797,1.49041,-2.64008
368.6,10.8676,1.2426,-2.65765
371,10.9394,1.04353,-2.67323
373.4,11.011,0.893824,-2.68705
375.8,11.0829,0.767743,-2.69914
378.2,11.1546,0.681115,-2.70944
380.6,11.2272,0.616577,-2.71763
383,11.2995,0.583535,-2.72486
385.4,11.3717,0.560175,-2.73133
387.8,11.4443,0.55738,-2.73751
390.2,11.5172,0.573485,-2.74645
392.6,11.5901,0.589659,-2.75093
395,11.6622,0.602387,-2.75889
397.4,11.7357,0.623475,-2.76313
399.8,11.8092,0.646602,-2.77039
402.2,11.8819,0.660997,-2.77714
404.6,11.955,0.675243,-2.78406
407,12.0284,0.688296,-2.79095
409.4,12.1019,0.697374,-2.79757
411.8,12.175,0.718836,-2.8072
414.2,12.2475,0.719031,-2.81627
416.6,12.3221,0.732026,-2.82642
419,12.3952,0.729282,-2.83747
421.4,12.4685,0.71763,-2.84915
423.8,12.5423,0.714754,-2.86143
426.2,12.6158,0.700382,-2.87555
428.6,12.6895,0.687202,-2.88842
431,12.7631,0.670635,-2.90339
433.4,12.8369,0.654106,-2.91873
435.8,12.911,0.644294,-2.93552
438.2,12.9849,0.631072,-2.95324
440.6,13.0592,0.6314,-2.97329
443,13.1327,0.614853,-2.99434
445.4,13.2074,0.625219,-3.01568
447.8,13.2817,0.644738,-3.03855
450.2,13.3562,0.670187,-3.06119
452.6,13.431,0.704899,-3.08646
455,13.5054,0.751511,-3.1144
457.4,13.58,0.807076,-3.1366
459.8,13.6551,0.861277,-3.1644
462.2,13.7301,0.921099,-3.19042
464.6,13.8048,0.974526,-3.21585
467,13.8801,1.00044,-3.24134
469.4,13.955,1.03725,-3.26775
471.8,14.0299,1.05441,-3.2941
474.2,14.1052,1.06472,-3.32026
476.6,14.1801,1.05233,-3.34552
479,14.2553,1.02736,-3.37149
481.4,14.3305,1.03089,-3.39504
483.8,14.4056,1.01434,-3.4205
486.2,14.4807,1.00008,-3.44459
488.6,14.5561,0.96772,-3.46662
491,14.6307,0.926754,-3.48874
493.4,14.7066,0.894326,-3.51109
495.8,14.7818,0.833306,-3.53206
498.2,14.8573,0.774764,-3.5498
500.6,14.9321,0.711826,-3.56944
503,15.0082,0.664845,-3.58762
505.4,15.0829,0.617889,-3.60282
507.8,15.1589,0.572367,-3.61796
510.2,15.2344,0.525293,-3.63083
512.6,15.3101,0.464697,-3.64423
515,15.3858,0.414335,-3.65567
517.4,15.4611,0.365861,-3.66375
519.8,15.5371,0.339372,-3.6749
522.2,15.6128,0.314137,-3.6828
524.6,15.6888,0.294313,-3.68891
527,15.7649,0.2701,-3.7013
529.4,15.8409,0.229328,-3.70735
531.8,15.9162,0.20246,-3.70917
534.2,15.9928,0.19115,-3.71363
536.6,16.0693,0.189539,-3.71646
539,16.1454,0.184676,-3.72085
541.4,16.2216,0.184463,-3.7264
543.8,16.2981,0.180675,-3.72718
546.2,16.3745,0.178342,-3.729
548.6,16.451,0.184503,-3.73104
551,16.5277,0.191309,-3.73162
553.4,16.6039,0.202898,-3.73298
555.8,16.6801,0.205255,-3.73557
558.2,16.7574,0.20761,-3.73689
560.6,16.8337,0.212762,-3.74117
563,16.9113,0.22796,-3.73938
565.4,16.9878,0.238344,-3.73942
567.8,17.0648,0.251013,-3.74024
570.2,17.1411,0.250615,-3.74074
572.6,17.2188,0.258982,-3.74206
575,17.296,0.268664,-3.74341
577.4,17.3728,0.271076,-3.74337
579.8,17.45,0.275653,-3.74238
582.2,17.527,0.282465,-3.74776
584.6,17.6046,0.291079,-3.74662
587,17.6817,0.287894,-3.74644
589.4,17.7588,0.288395,-3.74644
591.8,17.8365,0.289808,-3.74644
594.2,17.9137,0.296575,-3.74644
596.6,17.9913,0.290438,-3.74776
599,18.0685,0.290018,-3.74771
601.4,18.1458,0.279536,-3.74908
603.8,18.2236,0.271711,-3.74776
606.2,18.3008,0.275691,-3.74973
608.6,18.3789,0.269927,-3.75117
611,18.4561,0.269791,-3.75249
613.4,18.534,0.257456,-3.74843
615.8,18.6115,0.2504,-3.74852
618.2,18.6894,0.243331,-3.74722
620.6,18.7668,0.238813,-3.75022
623,18.8447,0.227862,-3.75116
625.4,18.9225,0.220734,-3.75117
627.8,19.0001,0.206189,-3.75083
630.2,19.0778,0.207321,-3.75239
632.6,19.1554,0.193241,-3.75117
635,19.2332,0.182081,-3.75106
637.4,19.311,0.165819,-3.75022
639.8,19.3889,0.162051,-3.7466
642.2,19.4668,0.139699,-3.75182
644.6,19.5446,0.129207,-3.75149
647,19.6227,0.11808,-3.75149
649.4,19.7007,0.104009,-3.75149
651.8,19.7791,0.0866496,-3.75149
654.2,19.8573,0.0799898,-3.75277
656.6,19.9352,0.0661283,-3.7515
659,20.0132,0.0700304,-3.7515
661.4,20.0916,0.0737239,-3.75018
663.8,20.1702,0.103529,-3.74919
666.2,20.2481,0.0990328,-3.74968
668.6,20.3267,0.114876,-3.75229
671,20.405,0.0819785,-3.75261
673.4,20.4835,0.0906702,-3.75292
675.8,20.5626,0.113691,-3.75292
678.2,20.6412,0.109152,-3.75361
680.6,20.7191,0.10982,-3.75456
683,20.7985,0.102426,-3.75323
685.4,20.8774,0.111855,-3.75194
687.8,20.9561,0.0968706,-3.75325
690.2,21.035,0.0887239,-3.75553
692.6,21.1138,0.0875947,-3.75437
695,21.1925,0.0697105,-3.75249
697.4,21.2718,0.0755583,-3.75149
699.8,21.351,0.0631199,-3.75265
702.2,21.4299,0.0636614,-3.75116
704.6,21.5087,0.0554334,-3.74982
707,21.5881,0.0634609,-3.75379
709.4,21.6675,0.0461082,-3.75379
711.8,21.7467,0.0321509,-3.75253
714.2,21.8263,0.0383086,-3.75347
716.6,21.9052,0.0261077,-3.75348
719,21.9846,0.00945752,-3.75317
721.4,22.0638,0.00786702,-3.75354
723.8,22.1434,-0.00559817,-3.75346
726.2,22.2221,-0.019942,-3.75338
728.6,22.3019,-0.0180472,-3.75117
731,22.381,-0.0189812,-3.75248
733.4,22.4607,-0.0349637,-3.75216
735.8,22.5403,-0.0293106,-3.75223
738.2,22.6191,-0.0317008,-3.75347
740,22.6794,-0.0408164,-3.75348