File: 01_Data/Helmet_Tetrahedron/STA/N2/30K_min/Helmet_Tetrahedron_STA_N2_30KData_240229_R1.csv
Temp./C,Time/min,DSC/(mW/mg),Mass loss/mg
60.0,0.0,1.70369,0.00060935
62.3,0.114513,1.93374,-0.00024019
64.6,0.220237,2.14893,0.00180589
66.9,0.319572,2.32728,0.00271448
69.2,0.414725,2.46843,0.00592258
71.5,0.505778,2.59507,0.00722519
73.8,0.595243,2.70048,0.00587088
76.1,0.681671,2.78773,0.00182703
78.4,0.766179,2.88322,0.00127029
80.7,0.85051,2.96586,0.00256831
83,0.932931,3.03447,0.00190959
85.3,1.01378,3.10793,0.00100034
87.6,1.09438,3.164,0.00128328
89.9,1.17325,3.23097,-0.00172225
92.2,1.25277,3.28374,-0.00174127
94.5,1.33139,3.34653,-0.00135393
96.8,1.4086,3.38722,0.000310704
99.1,1.48607,3.43569,0.00152728
101.4,1.56299,3.48574,0.000969678
103.7,1.63938,3.53431,0.0023638
106,1.7162,3.56652,0.00163998
108.3,1.79276,3.60817,0.000662269
110.6,1.86888,3.65187,0.00146503
112.9,1.94447,3.69068,0.00328339
115.2,2.02082,3.74006,0.0035452
117.5,2.09692,3.76441,0.00231142
119.8,2.17284,3.80317,0.00314481
122.1,2.2484,3.84384,0.00173923
124.4,2.32355,3.8737,0.000430386
126.7,2.39867,3.90621,0.000429999
129,2.4739,3.93844,0.000454547
131.3,2.54823,3.9637,0.00141991
133.6,2.62283,3.9939,0.00106169
135.9,2.6962,4.02191,-0.00128847
138.2,2.77066,4.05993,0.000139917
140.5,2.84386,4.08495,0.000235389
142.8,2.91832,4.11688,0.00010868
145.1,2.99156,4.14103,0.00142035
147.4,3.06463,4.16659,0.00142
149.7,3.13739,4.19681,0.00142
152,3.21056,4.22324,0.00137663
154.3,3.28324,4.24522,-0.000736356
156.6,3.35577,4.27378,9.97848e-05
158.9,3.42795,4.28909,-0.00254046
161.2,3.50049,4.30586,-0.00392781
163.5,3.57248,4.33503,-0.00538607
165.8,3.64433,4.35431,-0.00396001
168.1,3.71715,4.37137,-0.00527975
170.4,3.78877,4.39471,-0.00249292
172.7,3.86051,4.4154,0.000108621
175,3.93224,4.43309,0.000306741
177.3,4.00374,4.44681,-0.00111013
179.6,4.07495,4.47299,-0.00241686
181.9,4.14616,4.50254,-0.00241997
184.2,4.21712,4.51021,-0.00115406
186.5,4.28797,4.53449,-0.00106263
188.8,4.35823,4.55728,-0.00323274
191.1,4.42939,4.56681,-0.0051634
193.4,4.49983,4.58849,-0.00430519
195.7,4.5703,4.60307,-0.00420637
198,4.64009,4.61607,-0.00253152
200.3,4.70968,4.63105,-0.00253001
202.6,4.78054,4.64074,-0.00244648
204.9,4.85005,4.64423,-0.00677603
207.2,4.92042,4.65578,-0.00801987
209.5,4.99034,4.65627,-0.00804031
211.8,5.05958,4.66884,-0.0109193
214.1,5.12987,4.67926,-0.0109399
216.4,5.19942,4.67521,-0.0108807
218.7,5.26934,4.67909,-0.00952738
221,5.33937,4.68451,-0.0122547
223.3,5.40905,4.68548,-0.0147
225.6,5.47844,4.68493,-0.01483
227.9,5.54832,4.69075,-0.0145121
230.2,5.61785,4.68696,-0.0163013
232.5,5.68744,4.67845,-0.0175787
234.8,5.75689,4.68073,-0.0195776
237.1,5.82641,4.66297,-0.0211863
239.4,5.89548,4.64614,-0.0232983
241.7,5.96486,4.62449,-0.0245556
244,6.03436,4.59095,-0.0261555
246.3,6.10369,4.55597,-0.0290472
248.6,6.17305,4.50436,-0.0319175
250.9,6.24177,4.44479,-0.036021
253.2,6.31085,4.37224,-0.0402796
255.5,6.37993,4.2794,-0.0464353
257.8,6.44846,4.19631,-0.0508516
260.1,6.51872,4.23435,-0.0577252
262.4,6.58862,4.46472,-0.0641187
264.7,6.65842,4.7347,-0.0706973
267,6.72892,4.92324,-0.0778741
269.3,6.79849,5.06258,-0.086403
271.6,6.86786,5.16876,-0.097513
273.9,6.93799,5.26302,-0.110164
276.2,7.00782,5.3466,-0.123802
278.5,7.07767,5.43456,-0.13985
280.8,7.14743,5.5361,-0.153808
283.1,7.21737,5.64777,-0.17233
285.4,7.28718,5.76082,-0.19559
287.7,7.35732,5.89375,-0.220579
290,7.42731,6.04509,-0.245561
292.3,7.49786,6.21194,-0.275734
294.6,7.56832,6.39948,-0.30959
296.9,7.63879,6.6083,-0.345324
299.2,7.70924,6.83349,-0.385137
301.5,7.7795,7.0707,-0.430332
303.8,7.85009,7.33601,-0.48483
306.1,7.92126,7.60654,-0.543237
308.4,7.99176,7.87926,-0.606602
310.7,8.06232,8.15348,-0.675701
313,8.13317,8.42297,-0.753761
315.3,8.20413,8.67465,-0.835711
317.6,8.27502,8.92373,-0.919519
319.9,8.34531,9.13598,-1.00707
322.2,8.41631,9.29096,-1.10378
324.5,8.48675,9.34051,-1.20096
326.8,8.55672,9.28047,-1.29568
329.1,8.62599,9.06967,-1.3866
331.4,8.695,8.75985,-1.47499
333.7,8.76399,8.34735,-1.5574
336,8.83245,7.89031,-1.62865
338.3,8.90113,7.39529,-1.69415
340.6,8.96919,6.86737,-1.75609
342.9,9.03753,6.32823,-1.80722
345.2,9.10538,5.79408,-1.85502
347.5,9.17399,5.25997,-1.8944
349.8,9.24203,4.73366,-1.93199
352.1,9.31027,4.24433,-1.96414
354.4,9.37838,3.78359,-1.99229
356.7,9.44736,3.35946,-2.01373
359,9.5165,2.99188,-2.03558
361.3,9.5855,2.6809,-2.05428
363.6,9.65532,2.41919,-2.07389
365.9,9.72484,2.22231,-2.09104
368.2,9.795,2.06494,-2.10603
370.5,9.86488,1.95269,-2.11907
372.8,9.93518,1.87345,-2.13324
375.1,10.0057,1.8115,-2.14454
377.4,10.0763,1.76904,-2.15599
379.7,10.1463,1.73576,-2.16638
382,10.2177,1.71788,-2.17572
384.3,10.2886,1.71118,-2.18635
386.6,10.3594,1.70441,-2.19956
388.9,10.4301,1.70273,-2.21203
391.2,10.5015,1.71539,-2.22561
393.5,10.5733,1.72081,-2.24162
395.8,10.6441,1.73881,-2.25544
398.1,10.7153,1.76323,-2.26993
400.4,10.7876,1.77495,-2.28651
402.7,10.8586,1.80308,-2.2993
405,10.9305,1.81218,-2.31705
407.3,11.0025,1.82285,-2.33626
409.6,11.0741,1.82665,-2.35564
411.9,11.1459,1.82874,-2.3745
414.2,11.2168,1.80789,-2.3952
416.5,11.2889,1.76599,-2.41874
418.8,11.3609,1.72628,-2.44119
421.1,11.4326,1.66318,-2.46736
423.4,11.5041,1.58617,-2.49099
425.7,11.576,1.49783,-2.51464
428,11.6477,1.38997,-2.5409
430.3,11.7191,1.27779,-2.56416
432.6,11.7911,1.14087,-2.58791
434.9,11.8631,1.00532,-2.61228
437.2,11.9347,0.857615,-2.64001
439.5,12.0064,0.726055,-2.66439
441.8,12.0787,0.593687,-2.6869
444.1,12.1502,0.483104,-2.70792
446.4,12.2224,0.378563,-2.7295
448.7,12.2947,0.287357,-2.75196
451,12.367,0.209045,-2.77327
453.3,12.4397,0.133501,-2.79383
455.6,12.512,0.084885,-2.81541
457.9,12.5848,0.0498571,-2.83859
460.2,12.6572,0.0280944,-2.85946
462.5,12.7301,0.0180122,-2.88072
464.8,12.803,0.0318755,-2.90136
467.1,12.8761,0.0705473,-2.92172
469.4,12.9495,0.127642,-2.94343
471.7,13.0228,0.188373,-2.9662
474,13.0961,0.268372,-2.98895
476.3,13.1698,0.330538,-3.01246
478.6,13.2431,0.397533,-3.03236
480.9,13.3164,0.449319,-3.05565
483.2,13.3901,0.483723,-3.07914
485.5,13.4636,0.495431,-3.10175
487.8,13.5372,0.48684,-3.1237
490.1,13.6105,0.466707,-3.14094
492.4,13.6841,0.448664,-3.15962
494.7,13.7575,0.425429,-3.17712
497,13.8313,0.397627,-3.19218
499.3,13.9051,0.367429,-3.20848
501.6,13.9786,0.326657,-3.2258
503.9,14.0521,0.284654,-3.23987
506.2,14.1259,0.245283,-3.25145
508.5,14.1991,0.19378,-3.26257
510.8,14.2734,0.149405,-3.27273
513.1,14.3471,0.114934,-3.28521
515.4,14.4205,0.0720479,-3.29232
517.7,14.4948,0.0325901,-3.3007
520,14.5689,0.0117349,-3.30636
522.3,14.6427,-0.0203926,-3.30831
524.6,14.7166,-0.0444445,-3.31491
526.9,14.791,-0.0704477,-3.32063
529.2,14.8652,-0.085273,-3.3295
531.5,14.9391,-0.0939007,-3.33404
533.8,15.0133,-0.116174,-3.33554
536.1,15.0879,-0.116486,-3.33817
538.4,15.1622,-0.124335,-3.3412
540.7,15.2366,-0.132628,-3.34564
543,15.3109,-0.13965,-3.35094
545.3,15.3853,-0.143712,-3.35609
547.6,15.4597,-0.151426,-3.35709
549.9,15.5349,-0.15535,-3.3569
552.2,15.609,-0.154664,-3.35738
554.5,15.6838,-0.16037,-3.35738
556.8,15.7585,-0.163741,-3.36001
559.1,15.8331,-0.171722,-3.36004
561.4,15.9075,-0.180909,-3.35991
563.7,15.9826,-0.187886,-3.36123
566,16.0573,-0.184941,-3.36305
568.3,16.1315,-0.187408,-3.36565
570.6,16.2069,-0.200691,-3.36814
572.9,16.2817,-0.2026,-3.36787
575.2,16.3559,-0.206203,-3.367
577.5,16.4316,-0.212217,-3.36926
579.8,16.5065,-0.213703,-3.37089
582.1,16.5818,-0.21462,-3.37221
584.4,16.6566,-0.228426,-3.37352
586.7,16.732,-0.227407,-3.3748
589,16.8071,-0.228868,-3.37254
591.3,16.8825,-0.234949,-3.37386
593.6,16.9575,-0.242848,-3.37647
595.9,17.0331,-0.254388,-3.37794
598.2,17.1083,-0.276288,-3.38051
600.5,17.1838,-0.283785,-3.3791
602.8,17.2592,-0.29868,-3.37775
605.1,17.3344,-0.317472,-3.37764
607.4,17.4098,-0.323654,-3.37539
609.7,17.4856,-0.350868,-3.38013
612,17.5606,-0.369564,-3.38208
614.3,17.6368,-0.383281,-3.3834
616.6,17.7122,-0.397162,-3.38218
618.9,17.7877,-0.414379,-3.38253
621.2,17.8636,-0.435984,-3.38342
623.5,17.9393,-0.445934,-3.38077
625.8,18.0149,-0.458745,-3.38077
628.1,18.0905,-0.478885,-3.38214
630.4,18.1661,-0.494765,-3.38341
632.7,18.2422,-0.516672,-3.38296
635,18.3177,-0.534114,-3.38333
637.3,18.3932,-0.558515,-3.38472
639.6,18.4694,-0.571626,-3.38483
641.9,18.545,-0.584588,-3.38693
644.2,18.6207,-0.601196,-3.38779
646.5,18.6965,-0.625267,-3.38878
648.8,18.7726,-0.637786,-3.38751
651.1,18.8487,-0.650144,-3.38802
653.4,18.9249,-0.661904,-3.39023
655.7,19.0005,-0.676439,-3.39088
658,19.0765,-0.6928,-3.39021
660.3,19.1527,-0.706584,-3.38919
662.6,19.2289,-0.717987,-3.39021
664.9,19.3051,-0.734033,-3.39369
667.2,19.3809,-0.752047,-3.39458
669.5,19.457,-0.756166,-3.39691
671.8,19.5332,-0.77321,-3.39571
674.1,19.6094,-0.7817,-3.39549
676.4,19.6856,-0.801031,-3.39546
678.7,19.7619,-0.8187,-3.39681
681,19.8383,-0.827994,-3.3968
683.3,19.9144,-0.84267,-3.3968
685.6,19.991,-0.863045,-3.3968
687.9,20.0676,-0.899494,-3.39688
690.2,20.1439,-0.91889,-3.3968
692.5,20.2203,-0.937581,-3.39787
694.8,20.297,-0.966997,-3.39914
697.1,20.3736,-0.989734,-3.40088
699.4,20.4503,-1.01321,-3.40229
701.7,20.527,-1.03061,-3.40229
704,20.6038,-1.05522,-3.40106
706.3,20.6806,-1.0855,-3.40229
708.6,20.7572,-1.09696,-3.40135
710.9,20.8342,-1.12756,-3.40232
713.2,20.9108,-1.14343,-3.40511
715.5,20.988,-1.16881,-3.40645
717.8,21.065,-1.19282,-3.40494
720.1,21.1421,-1.20666,-3.40516
722.4,21.2192,-1.23389,-3.40362
724.7,21.2961,-1.24718,-3.40357
727,21.3732,-1.27387,-3.40496
729.3,21.4504,-1.29316,-3.40753
731.6,21.5279,-1.32569,-3.40879
733.9,21.6046,-1.34163,-3.41118
736.2,21.6821,-1.3674,-3.41118
738.5,21.7595,-1.38852,-3.41058
740,21.8101,-1.40119,-3.41118