File: 01_Data/Helmet_Tetrahedron/STA/N2/30K_min/Helmet_Tetrahedron_STA_N2_30KData_250512_R3.csv
Temp./C,Time/min,DSC/(mW/mg),Mass loss/mg
35.0,0.0,1.08609,-0.0136036
37.4,0.168772,1.31682,-0.00621713
39.8,0.317008,1.50873,-0.0034825
42.2,0.450918,1.66824,-0.00171189
44.6,0.577886,1.8154,0.000331135
47,0.697242,1.94894,0.000547686
49.4,0.811739,2.07052,0.00364518
51.8,0.921864,2.19214,0.00322842
54.2,1.03053,2.30008,0.00396504
56.6,1.13545,2.41764,0.00632594
59,1.2382,2.52601,0.00517081
61.4,1.33904,2.61629,0.00696932
63.8,1.43701,2.67574,0.005248
66.2,1.5342,2.70602,0.00655387
68.6,1.62867,2.73098,0.00899807
71,1.72394,2.77206,0.00841236
73.4,1.8172,2.80792,0.00846752
75.8,1.90974,2.83546,0.00824774
78.2,2.001,2.87827,0.00965887
80.6,2.09179,2.92429,0.00972101
83,2.18123,2.97017,0.0100414
85.4,2.2702,3.03023,0.00848718
87.8,2.35791,3.08659,0.00854117
90.2,2.44429,3.14219,0.00849133
92.6,2.5303,3.20256,0.0110967
95,2.61496,3.25078,0.00979489
97.4,2.70035,3.2947,0.0112494
99.8,2.78456,3.34198,0.00996202
102.2,2.86767,3.38337,0.0112979
104.6,2.95006,3.42419,0.0113575
107,3.03294,3.4722,0.00998785
109.4,3.11513,3.51616,0.0099927
111.8,3.19701,3.56028,0.00873303
114.2,3.27858,3.6076,0.00998919
116.6,3.35946,3.645,0.00999993
119,3.44058,3.67853,0.00927167
121.4,3.52102,3.73035,0.00999
123.8,3.60061,3.77534,0.00869334
126.2,3.67991,3.81156,0.00868604
128.6,3.75853,3.84718,0.00998814
131,3.83704,3.89332,0.00999961
133.4,3.91509,3.9165,0.01
135.8,3.99267,3.95388,0.01
138.2,4.07003,3.98352,0.0100542
140.6,4.14717,4.01756,0.00903773
143,4.2238,4.05533,0.00867401
145.4,4.29947,4.08977,0.0100403
147.8,4.37559,4.10815,0.00867005
150.2,4.45091,4.15052,0.00872707
152.6,4.52638,4.17722,0.00637013
155,4.60228,4.2165,0.00766839
157.4,4.67733,4.23421,0.00636878
159.8,4.75209,4.26316,0.00636914
162.2,4.82713,4.2862,0.00500503
164.6,4.90185,4.32007,0.00342391
167,4.97646,4.36003,0.00341
169.4,5.0509,4.41863,0.00341447
171.8,5.12461,4.48887,0.00242112
174.2,5.1985,4.55378,0.00109607
176.6,5.27274,4.57501,0.0011
179,5.34652,4.58008,0.000809105
181.4,5.42004,4.582,-0.000184824
183.8,5.49281,4.60412,0.000449968
186.2,5.56584,4.62052,0.000429522
188.6,5.63843,4.6376,-0.000210036
191,5.71095,4.64479,-0.000209974
193.4,5.78353,4.66432,0.00078139
195.8,5.85538,4.68081,-0.000236274
198.2,5.92737,4.69886,-0.00022
200.6,5.99986,4.7131,-0.000220831
203,6.07174,4.72218,-0.0015382
205.4,6.14358,4.72165,-0.00256475
207.8,6.21507,4.72066,-0.0028597
210.2,6.28645,4.72757,-0.0041706
212.6,6.35836,4.73858,-0.00515676
215,6.42995,4.73071,-0.00548126
217.4,6.50146,4.74871,-0.00544441
219.8,6.57293,4.75713,-0.00559302
222.2,6.64428,4.76074,-0.00812354
224.6,6.71541,4.77115,-0.00943152
227,6.78674,4.7777,-0.0107605
229.4,6.85798,4.77684,-0.0119666
231.8,6.92911,4.77981,-0.0136818
234.2,7.00031,4.78744,-0.0165653
236.6,7.0712,4.77968,-0.0178718
239,7.14243,4.75308,-0.0192793
241.4,7.21311,4.71465,-0.0225343
243.8,7.28397,4.67778,-0.0259574
246.2,7.35482,4.63454,-0.0273419
248.6,7.42537,4.57704,-0.0312198
251,7.49622,4.52774,-0.0364686
253.4,7.56676,4.45287,-0.0426856
255.8,7.63718,4.3826,-0.0472026
258.2,7.7076,4.29937,-0.0501986
260.6,7.778,4.19781,-0.0553524
263,7.84771,4.06636,-0.0621251
265.4,7.9183,3.91181,-0.0701995
267.8,7.98993,4.17207,-0.0791172
270.2,8.06255,4.7786,-0.090315
272.6,8.13431,5.13353,-0.106347
275,8.20514,5.3498,-0.121588
277.4,8.27683,5.50699,-0.140487
279.8,8.34847,5.60859,-0.159008
282.2,8.41969,5.72553,-0.176206
284.6,8.49086,5.83133,-0.197901
287,8.56206,5.95642,-0.220233
289.4,8.63349,6.11122,-0.246817
291.8,8.70498,6.28731,-0.275915
294.2,8.77665,6.48566,-0.306645
296.6,8.8485,6.71764,-0.342247
299,8.9206,7.00074,-0.384306
301.4,8.9925,7.30927,-0.431306
303.8,9.06456,7.67043,-0.48575
306.2,9.13695,8.05829,-0.543127
308.6,9.20962,8.47296,-0.615857
311,9.28191,8.89247,-0.695692
313.4,9.35455,9.28076,-0.787922
315.8,9.42669,9.60868,-0.892591
318.2,9.49854,9.81858,-1.00085
320.6,9.56965,9.87722,-1.11722
323,9.64085,9.827,-1.24494
325.4,9.71143,9.6553,-1.3769
327.8,9.78161,9.37055,-1.50461
330.2,9.85198,9.00339,-1.62898
332.6,9.92149,8.58192,-1.7516
335,9.99261,8.2185,-1.87175
337.4,10.0632,7.93477,-1.98039
339.8,10.1334,7.45177,-2.07698
342.2,10.2025,6.87777,-2.16391
344.6,10.2732,6.25469,-2.24687
347,10.3429,5.64581,-2.31535
349.4,10.4125,5.04695,-2.37369
351.8,10.4824,4.47372,-2.42546
354.2,10.5524,3.93162,-2.47382
356.6,10.6224,3.44585,-2.51052
359,10.6929,2.99864,-2.54497
361.4,10.7632,2.61056,-2.57452
363.8,10.8341,2.27913,-2.59829
366.2,10.9051,1.99981,-2.62
368.6,10.9764,1.765,-2.63945
371,11.0479,1.5695,-2.65464
373.4,11.1196,1.41399,-2.66972
375.8,11.1916,1.30082,-2.6801
378.2,11.2631,1.21682,-2.69011
380.6,11.3361,1.1449,-2.70033
383,11.4081,1.10086,-2.70822
385.4,11.4809,1.10117,-2.71371
387.8,11.5536,1.09435,-2.7216
390.2,11.6261,1.10027,-2.72597
392.6,11.6989,1.10528,-2.73169
395,11.772,1.12422,-2.73826
397.4,11.845,1.13776,-2.74398
399.8,11.9179,1.15961,-2.75124
402.2,11.991,1.1694,-2.7586
404.6,12.0644,1.18854,-2.76664
407,12.1374,1.1967,-2.7726
409.4,12.2105,1.21992,-2.781
411.8,12.284,1.2187,-2.79017
414.2,12.3567,1.21147,-2.79875
416.6,12.4307,1.21666,-2.80922
419,12.504,1.21145,-2.81911
421.4,12.5771,1.20865,-2.83086
423.8,12.6512,1.19613,-2.84316
426.2,12.7252,1.18291,-2.85614
428.6,12.7987,1.16502,-2.86833
431,12.8723,1.15311,-2.88404
433.4,12.9459,1.14326,-2.90008
435.8,13.0205,1.12283,-2.9178
438.2,13.0935,1.10545,-2.93596
440.6,13.1682,1.09974,-2.95444
443,13.2418,1.08887,-2.97518
445.4,13.3167,1.07593,-2.99521
447.8,13.3909,1.07558,-3.01862
450.2,13.4655,1.07935,-3.04118
452.6,13.5401,1.11035,-3.06694
455,13.6147,1.13346,-3.09088
457.4,13.6898,1.17628,-3.11709
459.8,13.7644,1.23295,-3.14414
462.2,13.8394,1.28707,-3.16902
464.6,13.9143,1.32543,-3.19474
467,13.9894,1.36484,-3.2244
469.4,14.0645,1.39066,-3.25034
471.8,14.1393,1.40141,-3.27687
474.2,14.2148,1.38797,-3.30278
476.6,14.2895,1.38348,-3.3292
479,14.3648,1.3563,-3.35413
481.4,14.4401,1.33585,-3.37988
483.8,14.5155,1.30161,-3.4035
486.2,14.5906,1.28896,-3.42697
488.6,14.666,1.26197,-3.45085
491,14.7416,1.21235,-3.47263
493.4,14.8169,1.16711,-3.49401
495.8,14.8928,1.14112,-3.5162
498.2,14.9673,1.10166,-3.53452
500.6,15.0433,1.04208,-3.55097
503,15.1192,1.00904,-3.57004
505.4,15.1945,0.969971,-3.58714
507.8,15.2706,0.916906,-3.60199
510.2,15.3462,0.871512,-3.61574
512.6,15.4218,0.822336,-3.62879
515,15.4974,0.769321,-3.64014
517.4,15.5738,0.723597,-3.65051
519.8,15.6495,0.703591,-3.65873
522.2,15.7256,0.679506,-3.66809
524.6,15.8016,0.639173,-3.67552
527,15.878,0.638145,-3.6812
529.4,15.954,0.601846,-3.68666
531.8,16.0306,0.583851,-3.69202
534.2,16.107,0.56746,-3.69583
536.6,16.1832,0.547813,-3.69878
539,16.2597,0.542869,-3.70133
541.4,16.336,0.533639,-3.7043
543.8,16.412,0.545296,-3.70696
546.2,16.4894,0.534366,-3.70988
548.6,16.5661,0.544452,-3.71272
551,16.6426,0.55287,-3.71405
553.4,16.7195,0.535539,-3.71548
555.8,16.7963,0.542178,-3.71538
558.2,16.8734,0.550063,-3.71731
560.6,16.9501,0.564213,-3.7199
563,17.0269,0.567481,-3.71964
565.4,17.1041,0.572705,-3.71899
567.8,17.1811,0.574063,-3.72031
570.2,17.2577,0.577736,-3.72163
572.6,17.335,0.578952,-3.72127
575,17.4124,0.581955,-3.72263
577.4,17.4894,0.585053,-3.72403
579.8,17.5658,0.582425,-3.72401
582.2,17.6434,0.574938,-3.72295
584.6,17.7212,0.580738,-3.72294
587,17.7985,0.576106,-3.72474
589.4,17.876,0.577511,-3.7255
591.8,17.9533,0.57141,-3.72427
594.2,18.0304,0.579487,-3.72555
596.6,18.1079,0.568715,-3.72556
599,18.1854,0.571895,-3.72558
601.4,18.2628,0.577645,-3.72563
603.8,18.3404,0.572949,-3.72822
606.2,18.4181,0.574878,-3.72822
608.6,18.4956,0.568376,-3.72724
611,18.5734,0.567193,-3.72723
613.4,18.651,0.568215,-3.72856
615.8,18.729,0.568186,-3.72855
618.2,18.8066,0.569873,-3.72986
620.6,18.8845,0.575062,-3.73098
623,18.9623,0.563415,-3.73085
625.4,19.0409,0.566387,-3.73146
627.8,19.1188,0.566753,-3.7312
630.2,19.1969,0.575881,-3.72986
632.6,19.2748,0.572065,-3.72986
635,19.3526,0.574629,-3.73113
637.4,19.4311,0.588286,-3.72942
639.8,19.5087,0.585139,-3.72822
642.2,19.587,0.585441,-3.72822
644.6,19.665,0.576505,-3.72954
647,19.7431,0.571224,-3.73085
649.4,19.8214,0.572335,-3.73217
651.8,19.8996,0.573105,-3.73217
654.2,19.9775,0.57448,-3.73349
656.6,20.0557,0.577464,-3.73217
659,20.1336,0.524584,-3.73217
661.4,20.2122,0.538047,-3.73217
663.8,20.2909,0.550708,-3.73221
666.2,20.3683,0.548597,-3.73349
668.6,20.4474,0.539355,-3.73349
671,20.5254,0.530179,-3.73227
673.4,20.6037,0.525356,-3.73112
675.8,20.6822,0.53282,-3.73092
678.2,20.7606,0.516028,-3.73217
680.6,20.8389,0.502393,-3.73348
683,20.9173,0.495187,-3.73217
685.4,20.9952,0.494416,-3.73283
687.8,21.0744,0.483262,-3.73282
690.2,21.1531,0.477308,-3.73282
692.6,21.2317,0.472926,-3.7318
695,21.3105,0.464679,-3.73283
697.4,21.3892,0.455184,-3.73283
699.8,21.4681,0.438055,-3.73271
702.2,21.5472,0.427158,-3.73316
704.6,21.6261,0.410974,-3.73382
707,21.7048,0.400126,-3.73447
709.4,21.7836,0.392491,-3.73448
711.8,21.8631,0.378015,-3.7341
714.2,21.9419,0.374537,-3.73499
716.6,22.0211,0.362933,-3.73447
719,22.1003,0.350432,-3.73579
721.4,22.1794,0.333177,-3.73563
723.8,22.2585,0.319412,-3.7348
726.2,22.3377,0.310334,-3.73455
728.6,22.4169,0.300378,-3.7348
731,22.496,0.28273,-3.73612
733.4,22.5752,0.265749,-3.73573
735.8,22.6548,0.258418,-3.73481
738.2,22.7342,0.238637,-3.73481
740,22.7937,0.23313,-3.73481