File: 01_Data/Helmet_Tetrahedron/STA/N2/30K_min/Helmet_Tetrahedron_STA_N2_30KData_250513_R4.csv
Temp./C,Time/min,DSC/(mW/mg),Mass loss/mg
35.0,0.0,1.20172,-0.00218143
37.4,0.148306,1.42102,-0.00370983
39.8,0.283839,1.5993,-0.00329442
42.2,0.409309,1.74592,-0.00301527
44.6,0.528072,1.88498,-0.00303395
47,0.641892,2.01474,-0.00304687
49.4,0.75277,2.1273,-0.0029914
51.8,0.859475,2.2338,-0.00163994
54.2,0.963003,2.33272,-0.00132713
56.6,1.06522,2.44365,-0.00239749
59,1.16349,2.54115,-0.00161276
61.4,1.26279,2.64342,-0.00264728
63.8,1.35942,2.70138,-0.0046023
66.2,1.4539,2.7335,-0.00596405
68.6,1.54768,2.74655,-0.00380755
71,1.6405,2.76361,-0.00452835
73.4,1.73215,2.79747,-0.00318422
75.8,1.82333,2.82342,-0.00493826
78.2,1.91256,2.84723,-0.00344849
80.6,2.00272,2.89905,-0.003683
83,2.09162,2.93167,-0.00328354
85.4,2.17918,2.9744,-0.00327162
87.8,2.26607,3.02188,-0.00326165
90.2,2.35219,3.06495,-0.00454879
92.6,2.43755,3.11259,-0.00340468
95,2.52197,3.15253,-0.00567269
97.4,2.60589,3.19894,-0.00463066
99.8,2.68917,3.22605,-0.00489196
102.2,2.77228,3.26959,-0.00473989
104.6,2.85476,3.31637,-0.00473176
107,2.93717,3.35076,-0.00504744
109.4,3.01825,3.39661,-0.00559821
111.8,3.10035,3.44416,-0.00603286
114.2,3.18169,3.4775,-0.00603705
116.6,3.26215,3.51771,-0.00734911
119,3.34257,3.55332,-0.00701536
121.4,3.42284,3.59682,-0.00703147
123.8,3.5025,3.63086,-0.00571469
126.2,3.58194,3.66862,-0.0073873
128.6,3.66052,3.69792,-0.00604
131,3.73901,3.7285,-0.00727407
133.4,3.81683,3.76017,-0.00736045
135.8,3.89431,3.79157,-0.00733841
138.2,3.97116,3.81914,-0.00736
140.6,4.04834,3.84715,-0.00736
143,4.12471,3.88078,-0.00729056
145.4,4.20102,3.91152,-0.00999149
147.8,4.27671,3.93091,-0.0114053
150.2,4.35258,3.95452,-0.01131
152.6,4.42735,3.98505,-0.011298
155,4.50305,4.01163,-0.0099901
157.4,4.57798,4.03014,-0.00999
159.8,4.65311,4.05064,-0.0099907
162.2,4.72756,4.07999,-0.0113088
164.6,4.80204,4.11568,-0.01131
167,4.87632,4.15897,-0.01131
169.4,4.95093,4.20911,-0.0116058
171.8,5.02477,4.31253,-0.01263
174.2,5.09878,4.3251,-0.0126315
176.6,5.17271,4.34865,-0.0140216
179,5.24604,4.36293,-0.0152595
181.4,5.3192,4.35637,-0.0165818
183.8,5.39236,4.36174,-0.0165838
186.2,5.46414,4.37813,-0.0179116
188.6,5.53766,4.37916,-0.0185619
191,5.61002,4.38793,-0.0198799
193.4,5.68227,4.39376,-0.0185532
195.8,5.75433,4.40958,-0.0194914
198.2,5.82632,4.4104,-0.0201658
200.6,5.89789,4.41558,-0.0211901
203,5.97012,4.41528,-0.0202262
205.4,6.04218,4.40894,-0.0215199
207.8,6.11383,4.41183,-0.0215197
210.2,6.18526,4.41179,-0.022837
212.6,6.25705,4.42397,-0.0227376
215,6.32856,4.4265,-0.025459
217.4,6.39993,4.42767,-0.026793
219.8,6.47113,4.42508,-0.0267895
222.2,6.54248,4.42348,-0.0267755
224.6,6.6136,4.41895,-0.0293756
227,6.68523,4.42002,-0.0295317
229.4,6.75637,4.42792,-0.0308986
231.8,6.8275,4.42607,-0.031718
234.2,6.89858,4.42121,-0.0335708
236.6,6.96968,4.40292,-0.0350529
239,7.04066,4.38926,-0.0378838
241.4,7.11144,4.35618,-0.0388691
243.8,7.18204,4.31595,-0.0391988
246.2,7.25299,4.26835,-0.0420105
248.6,7.32348,4.22985,-0.0440979
251,7.39438,4.15775,-0.0474338
253.4,7.46494,4.1061,-0.0510231
255.8,7.53534,4.01335,-0.0556943
258.2,7.60579,3.92744,-0.0606863
260.6,7.67632,3.82328,-0.0645717
263,7.74658,3.68894,-0.0697839
265.4,7.81665,3.52965,-0.0750864
267.8,7.88814,3.74106,-0.0818164
270.2,7.9609,4.33131,-0.0912364
272.6,8.03268,4.70003,-0.104031
275,8.10442,4.93562,-0.118615
277.4,8.17554,5.08656,-0.134849
279.8,8.24675,5.20942,-0.150823
282.2,8.31835,5.31544,-0.168473
284.6,8.38937,5.42475,-0.18735
287,8.46098,5.54828,-0.205535
289.4,8.53226,5.69828,-0.227609
291.8,8.60391,5.86578,-0.251994
294.2,8.67563,6.05015,-0.278858
296.6,8.7475,6.26525,-0.31022
299,8.81925,6.50447,-0.346031
301.4,8.89165,6.77946,-0.386799
303.8,8.96386,7.10327,-0.434208
306.2,9.03596,7.43966,-0.488275
308.6,9.10845,7.78757,-0.550976
311,9.18078,8.16301,-0.62437
313.4,9.25333,8.53355,-0.708946
315.8,9.32567,8.88083,-0.801963
318.2,9.39762,9.19705,-0.903271
320.6,9.4696,9.43416,-1.01715
323,9.54139,9.59825,-1.14131
325.4,9.61272,9.63021,-1.27633
327.8,9.68376,9.51271,-1.40885
330.2,9.75454,9.30238,-1.54527
332.6,9.82532,9.10673,-1.68298
335,9.89563,8.67334,-1.81741
337.4,9.96446,7.92085,-1.93287
339.8,10.0342,7.22147,-2.03911
342.2,10.1036,6.61071,-2.13406
344.6,10.1737,5.98979,-2.22145
347,10.2435,5.38704,-2.29347
349.4,10.3131,4.80457,-2.35599
351.8,10.3829,4.22908,-2.41198
354.2,10.4529,3.68997,-2.46204
356.6,10.5229,3.18749,-2.50364
359,10.5934,2.72439,-2.53751
361.4,10.6636,2.3348,-2.56851
363.8,10.7343,1.98384,-2.59579
366.2,10.8054,1.67841,-2.61833
368.6,10.8767,1.42243,-2.63728
371,10.9482,1.22111,-2.65433
373.4,11.0197,1.05863,-2.66656
375.8,11.0914,0.923419,-2.67921
378.2,11.1635,0.842716,-2.68996
380.6,11.236,0.777961,-2.69971
383,11.3083,0.736337,-2.70719
385.4,11.3806,0.708185,-2.715
387.8,11.4534,0.704591,-2.72212
390.2,11.5262,0.716374,-2.72777
392.6,11.5986,0.717961,-2.73385
395,11.6718,0.730864,-2.7416
397.4,11.7446,0.750933,-2.74767
399.8,11.8176,0.753814,-2.75312
402.2,11.8909,0.769776,-2.75939
404.6,11.9644,0.789698,-2.76638
407,12.0376,0.797288,-2.77379
409.4,12.1105,0.820105,-2.78064
411.8,12.1838,0.831961,-2.7896
414.2,12.2573,0.827614,-2.79832
416.6,12.3307,0.835306,-2.808
419,12.4043,0.835978,-2.81919
421.4,12.4778,0.827856,-2.83069
423.8,12.5515,0.821696,-2.84044
426.2,12.6253,0.805866,-2.85271
428.6,12.699,0.797743,-2.86851
431,12.7727,0.787483,-2.88163
433.4,12.8469,0.769724,-2.89613
435.8,12.9207,0.760368,-2.9134
438.2,12.9948,0.758553,-2.931
440.6,13.0689,0.761292,-2.94795
443,13.1433,0.753697,-2.96776
445.4,13.2175,0.770434,-2.98692
447.8,13.2922,0.785154,-3.0102
450.2,13.3666,0.80742,-3.03356
452.6,13.4405,0.838749,-3.05825
455,13.5158,0.902058,-3.08226
457.4,13.591,0.952025,-3.1079
459.8,13.6658,1.0107,-3.13309
462.2,13.7408,1.06985,-3.15842
464.6,13.8157,1.14053,-3.18477
467,13.8909,1.18858,-3.21225
469.4,13.9661,1.23187,-3.23847
471.8,14.0412,1.23573,-3.26592
474.2,14.1163,1.22441,-3.29318
476.6,14.1916,1.22886,-3.31987
479,14.2666,1.21331,-3.34496
481.4,14.3419,1.17655,-3.36806
483.8,14.4174,1.16734,-3.39319
486.2,14.4928,1.12451,-3.4156
488.6,14.5682,1.08513,-3.43966
491,14.6436,1.0476,-3.46215
493.4,14.7189,0.980008,-3.48454
495.8,14.7945,0.917555,-3.5057
498.2,14.8701,0.859192,-3.52483
500.6,14.9454,0.795274,-3.54628
503,15.0212,0.731617,-3.56196
505.4,15.097,0.639969,-3.57699
507.8,15.1725,0.58682,-3.5921
510.2,15.2482,0.517385,-3.60444
512.6,15.3241,0.449088,-3.61974
515,15.3998,0.369134,-3.63001
517.4,15.4759,0.314487,-3.63978
519.8,15.5519,0.262144,-3.65128
522.2,15.628,0.209721,-3.65898
524.6,15.7039,0.160515,-3.66681
527,15.7801,0.109696,-3.67542
529.4,15.8565,0.0684891,-3.68104
531.8,15.9326,0.0366326,-3.68531
534.2,16.009,0.0194974,-3.68772
536.6,16.0854,-0.00307776,-3.69278
539,16.1619,-0.00745683,-3.69791
541.4,16.2385,-0.0165299,-3.70139
543.8,16.3148,-0.032195,-3.70348
546.2,16.3916,-0.0349083,-3.70615
548.6,16.4682,-0.0299821,-3.70747
551,16.545,-0.0329293,-3.70879
553.4,16.6216,-0.0295613,-3.70978
555.8,16.6986,-0.0242317,-3.70981
558.2,16.7755,-0.0209308,-3.71059
560.6,16.8521,-0.015656,-3.7122
563,16.9286,-0.00354793,-3.71505
565.4,17.0063,0.0113802,-3.71505
567.8,17.0835,0.0169344,-3.71505
570.2,17.1607,0.0262683,-3.7157
572.6,17.2378,0.0268024,-3.71766
575,17.3148,0.0252981,-3.71829
577.4,17.3924,0.0309378,-3.719
579.8,17.4695,0.0284245,-3.72034
582.2,17.5468,0.0282632,-3.72144
584.6,17.624,0.0261999,-3.72166
587,17.7018,0.0256303,-3.72295
589.4,17.7792,0.031356,-3.72295
591.8,17.8568,0.0271674,-3.72163
594.2,17.9342,0.0147334,-3.72163
596.6,18.0116,0.0253568,-3.72299
599,18.0893,0.0117079,-3.72569
601.4,18.1675,0.00177704,-3.72554
603.8,18.2449,-0.00097326,-3.72521
606.2,18.3227,-0.00204024,-3.72504
608.6,18.3995,-0.00881854,-3.72504
611,18.4785,-0.00377894,-3.72373
613.4,18.556,-0.00841062,-3.72373
615.8,18.6338,-0.00747355,-3.72363
618.2,18.7117,-0.0145974,-3.72405
620.6,18.7899,-0.0231296,-3.72405
623,18.8681,-0.0148701,-3.72405
625.4,18.9461,-0.0120571,-3.72403
627.8,19.0238,-0.00885928,-3.72558
630.2,19.1021,-0.0079422,-3.72691
632.6,19.1804,-0.00883933,-3.7269
635,19.2584,-0.0205104,-3.72757
637.4,19.3368,-0.0156871,-3.72757
639.8,19.4151,-0.013485,-3.72757
642.2,19.4932,-0.0267421,-3.72484
644.6,19.5708,-0.0299901,-3.72493
647,19.6497,-0.0315892,-3.72494
649.4,19.728,-0.0358975,-3.72625
651.8,19.8067,-0.0373211,-3.72491
654.2,19.8853,-0.0388577,-3.72745
656.6,19.9634,-0.0410474,-3.72855
659,20.0421,-0.0356497,-3.72987
661.4,20.1203,-0.0274785,-3.7292
663.8,20.1991,-0.055514,-3.72921
666.2,20.2772,-0.0316564,-3.72884
668.6,20.3561,-0.0311704,-3.72789
671,20.4343,-0.0366053,-3.72921
673.4,20.5131,-0.0478767,-3.73019
675.8,20.5919,-0.0509557,-3.72889
678.2,20.6702,-0.0510861,-3.72757
680.6,20.7489,-0.0548456,-3.72889
683,20.8279,-0.0620815,-3.72627
685.4,20.9066,-0.0581655,-3.72788
687.8,20.9852,-0.0521752,-3.72888
690.2,21.0639,-0.0571484,-3.7302
692.6,21.143,-0.0568307,-3.72888
695,21.2216,-0.0546407,-3.72888
697.4,21.3002,-0.060971,-3.7302
699.8,21.3793,-0.0625829,-3.7302
702.2,21.4582,-0.0672107,-3.7302
704.6,21.5369,-0.069119,-3.7302
707,21.6159,-0.0786502,-3.7301
709.4,21.6949,-0.0802413,-3.73023
711.8,21.7737,-0.0797923,-3.73151
714.2,21.853,-0.0826548,-3.73141
716.6,21.9312,-0.0915265,-3.7302
719,22.0108,-0.100134,-3.7302
721.4,22.09,-0.0991713,-3.7312
723.8,22.1694,-0.0974006,-3.73053
726.2,22.2486,-0.0921361,-3.73053
728.6,22.328,-0.1001,-3.7311
731,22.407,-0.102873,-3.73079
733.4,22.4866,-0.109691,-3.72988
735.8,22.5657,-0.108956,-3.73155
738.2,22.6455,-0.113754,-3.73324
740,22.7049,-0.108953,-3.73415