File: 01_Data/NFPA_1981-2007_SCBA_Lens/STA/N2/30K_min/NFPA_1981-2007_SCBA_Lens_STA_N2_30KData_240104_R1.csv
Temp./C,Time/min,DSC/(mW/mg),Mass loss/mg
80.177,0.0,1.91108,0.0143878
82.477,0.122885,2.13031,0.0151114
84.777,0.237383,2.31723,0.0148724
87.077,0.345359,2.48935,0.01828
89.377,0.448161,2.64784,0.018918
91.677,0.54672,2.77515,0.0187202
93.977,0.641875,2.91212,0.0199656
96.277,0.734618,3.02756,0.019998
98.577,0.825679,3.13813,0.0206115
100.877,0.913638,3.24266,0.0179989
103.177,1.00026,3.33084,0.0183969
105.477,1.08641,3.42449,0.01847
107.777,1.17141,3.51385,0.0177633
110.077,1.25533,3.60592,0.0196035
112.377,1.3383,3.6742,0.0197552
114.677,1.41896,3.75126,0.0183018
116.977,1.50144,3.81503,0.0169654
119.277,1.58245,3.89035,0.0157084
121.577,1.66212,3.95349,0.0163571
123.877,1.74164,4.02851,0.0175382
126.177,1.82096,4.09685,0.0161587
128.477,1.89936,4.1517,0.0173869
130.777,1.97747,4.21026,0.0199363
133.077,2.05456,4.27911,0.0198691
135.377,2.13148,4.34565,0.0200027
137.677,2.20816,4.41172,0.0199024
139.977,2.28426,4.48718,0.0196167
142.277,2.36023,4.57416,0.0185658
144.577,2.43506,4.68041,0.0186636
146.877,2.51147,4.84594,0.0186671
149.177,2.58693,5.08396,0.0185575
151.477,2.66147,5.23879,0.01734
153.777,2.73589,5.27245,0.0186399
156.077,2.81016,5.28969,0.01866
158.377,2.88384,5.33198,0.01866
160.677,2.95692,5.36877,0.0190549
162.977,3.03077,5.39586,0.0199796
165.277,3.10426,5.427,0.0202833
167.577,3.1775,5.46517,0.01966
169.877,3.2506,5.49163,0.0186092
172.177,3.32317,5.52584,0.0185754
174.477,3.39587,5.55658,0.0209725
176.777,3.46784,5.58269,0.0209241
179.077,3.54021,5.60565,0.0209746
181.377,3.61241,5.6433,0.0196495
183.677,3.68411,5.67057,0.01965
185.977,3.75573,5.69431,0.0196494
188.277,3.82726,5.72526,0.0183301
190.577,3.89815,5.75627,0.0194827
192.877,3.96986,5.77897,0.0196505
195.177,4.0405,5.80471,0.0198678
197.477,4.11176,5.82212,0.0209697
199.777,4.18203,5.85228,0.0216831
202.077,4.25322,5.87721,0.0209698
204.377,4.32406,5.89546,0.0212988
206.677,4.39451,5.9095,0.0209685
208.977,4.46482,5.92753,0.0209728
211.277,4.53475,5.9528,0.019649
213.577,4.60591,5.97472,0.0196487
215.877,4.67646,5.99665,0.0206401
218.177,4.74658,6.0052,0.02064
220.477,4.81689,6.02193,0.02064
222.777,4.88691,6.03369,0.0206402
225.077,4.95728,6.04516,0.0216324
227.377,5.02748,6.06088,0.0219601
229.677,5.09758,6.0674,0.02196
231.977,5.16795,6.0819,0.0215955
234.277,5.23768,6.09154,0.0206407
236.577,5.30772,6.1096,0.0199898
238.877,5.37758,6.11888,0.0196449
241.177,5.44727,6.11894,0.01933
243.477,5.51729,6.13437,0.01933
245.777,5.58698,6.12978,0.0176039
248.077,5.65678,6.14129,0.0166883
250.377,5.72701,6.14875,0.0193091
252.677,5.79613,6.14394,0.02064
254.977,5.86521,6.14189,0.0206407
257.277,5.93511,6.14715,0.0213969
259.577,6.00504,6.15731,0.0193327
261.877,6.07472,6.1584,0.01933
264.177,6.14432,6.15554,0.0199438
266.477,6.21356,6.15238,0.0212835
268.777,6.28323,6.15902,0.0219672
271.077,6.35318,6.1594,0.022635
273.377,6.42262,6.16066,0.0232757
275.677,6.4923,6.15888,0.0219665
277.977,6.56169,6.15634,0.0193412
280.277,6.63146,6.15248,0.0180115
282.577,6.70087,6.15242,0.0193662
284.877,6.7708,6.15049,0.0179441
287.177,6.84067,6.15142,0.0193304
289.477,6.91047,6.13566,0.0193419
291.777,6.98017,6.13266,0.0206388
294.077,7.04997,6.13356,0.0194365
296.377,7.11976,6.12848,0.0193299
298.677,7.18944,6.12902,0.0182162
300.977,7.25918,6.11894,0.0193361
303.277,7.32957,6.11105,0.0183299
305.577,7.39923,6.10527,0.0180103
307.877,7.46937,6.09319,0.0189889
310.177,7.53942,6.08484,0.018991
312.477,7.60939,6.07137,0.0203022
314.777,7.67893,6.06564,0.02031
317.077,7.74952,6.06204,0.0203158
319.377,7.81966,6.0456,0.0220106
321.677,7.88916,6.04191,0.0232975
323.977,7.95996,6.02711,0.0226453
326.277,8.03051,6.01835,0.0209757
328.577,8.10097,6.00982,0.0196495
330.877,8.17118,5.99773,0.0193148
333.177,8.24177,5.98447,0.0183403
335.477,8.31199,5.97124,0.0180001
337.777,8.38266,5.95448,0.0193117
340.077,8.45311,5.95018,0.0192223
342.377,8.52408,5.92424,0.0193013
344.677,8.59432,5.91816,0.01998
346.977,8.66529,5.90064,0.0186935
349.277,8.73616,5.88473,0.0189065
351.577,8.80688,5.8625,0.0199784
353.877,8.87727,5.85058,0.0186605
356.177,8.94837,5.83273,0.01866
358.477,9.01936,5.80791,0.0172561
360.777,9.09035,5.78279,0.0174704
363.077,9.16138,5.76164,0.0166367
365.377,9.23248,5.74672,0.0174459
367.677,9.30362,5.72002,0.01745
369.977,9.3747,5.69933,0.01745
372.277,9.44613,5.67755,0.0174424
374.577,9.51729,5.659,0.0189082
376.877,9.58837,5.63475,0.0202726
379.177,9.65981,5.61303,0.0227199
381.477,9.73148,5.57654,0.0200517
383.777,9.80279,5.55768,0.0173201
386.077,9.87414,5.53884,0.014612
388.377,9.94573,5.51201,0.0130881
390.677,10.0175,5.49689,0.0127179
392.977,10.089,5.48093,0.0139396
395.277,10.1607,5.48273,0.0152642
397.577,10.2327,5.46735,0.0142792
399.877,10.3045,5.46254,0.0142855
402.177,10.3763,5.45266,0.012961
404.477,10.4482,5.4312,0.0152788
406.777,10.5201,5.41939,0.0140508
409.077,10.5922,5.39419,0.0126797
411.377,10.6645,5.35789,0.00998776
413.677,10.7362,5.3275,0.00868004
415.977,10.8085,5.29147,0.00736195
418.277,10.8804,5.2508,0.00867799
420.577,10.9525,5.21765,0.00859249
422.877,11.0249,5.18254,0.00591937
425.177,11.097,5.13234,0.00457025
427.477,11.1695,5.09571,0.00234594
429.777,11.2417,5.05133,0.00135356
432.077,11.3141,5.00499,-0.00237072
434.377,11.3865,4.94613,-0.00396781
436.677,11.4587,4.90298,-0.00700537
438.977,11.5312,4.84441,-0.0135775
441.277,11.6035,4.79692,-0.0180975
443.577,11.6754,4.73427,-0.0217919
445.877,11.7486,4.65647,-0.0275861
448.177,11.8214,4.57985,-0.0348378
450.477,11.8939,4.49931,-0.0434206
452.777,11.9662,4.43761,-0.0495107
455.077,12.0394,4.35784,-0.0586279
457.377,12.1115,4.28106,-0.0676217
459.677,12.1843,4.19571,-0.080001
461.977,12.2569,4.15482,-0.0937401
464.277,12.3302,4.06153,-0.104516
466.577,12.4028,3.99574,-0.118804
468.877,12.4758,3.91865,-0.13648
471.177,12.549,3.86222,-0.156777
473.477,12.6224,3.86678,-0.183591
475.777,12.6951,3.89764,-0.214537
478.077,12.7692,3.92537,-0.246953
480.377,12.8428,3.99229,-0.286319
482.677,12.9163,4.10312,-0.332607
484.977,12.9907,4.24998,-0.388455
487.277,13.0649,4.40939,-0.455118
489.577,13.1388,4.43285,-0.5331
491.877,13.2122,4.53068,-0.616387
494.177,13.2863,4.5416,-0.708683
496.477,13.3605,4.57703,-0.807716
498.777,13.4338,4.54866,-0.915005
501.077,13.5084,4.58471,-1.03013
503.377,13.5823,4.54671,-1.15212
505.677,13.6564,4.56845,-1.27508
507.977,13.7309,4.60919,-1.40216
510.277,13.8051,4.6113,-1.5334
512.577,13.8785,4.59684,-1.66931
514.877,13.9533,4.56402,-1.81089
517.177,14.0276,4.48661,-1.95173
519.477,14.1009,4.30588,-2.09116
521.777,14.1745,4.04517,-2.22286
524.077,14.2476,3.69676,-2.3423
526.377,14.3204,3.2912,-2.45148
528.677,14.3931,2.85512,-2.54546
530.977,14.4658,2.47523,-2.62719
533.277,14.539,2.15377,-2.69873
535.577,14.6124,1.87547,-2.7533
537.877,14.6858,1.68705,-2.79891
540.177,14.7597,1.52811,-2.83529
542.477,14.8333,1.43247,-2.86497
544.777,14.9076,1.35877,-2.89283
547.077,14.9818,1.30556,-2.91205
549.377,15.0565,1.25264,-2.92731
551.677,15.1309,1.22479,-2.93867
553.977,15.2056,1.19778,-2.94906
556.277,15.2801,1.15971,-2.95811
558.577,15.3553,1.1323,-2.96681
560.877,15.4298,1.1069,-2.97652
563.177,15.5049,1.08693,-2.9854
565.477,15.5798,1.06611,-2.99433
567.777,15.655,1.04274,-3.00393
570.077,15.7302,1.03299,-3.0099
572.377,15.8054,1.01742,-3.01316
574.677,15.8806,1.00208,-3.01672
576.977,15.9553,0.991026,-3.02049
579.277,16.031,0.984787,-3.02499
581.577,16.1064,0.9715,-3.02921
583.877,16.1813,0.975206,-3.03677
586.177,16.2574,0.972436,-3.04089
588.477,16.3323,0.952153,-3.04235
590.777,16.4084,0.953806,-3.04755
593.077,16.4842,0.943403,-3.05018
595.377,16.5598,0.953261,-3.05264
597.677,16.6355,0.953329,-3.05768
599.977,16.7107,0.959548,-3.06238
602.277,16.7873,0.956978,-3.06647
604.577,16.8629,0.964969,-3.07121
606.877,16.9386,0.965846,-3.07511
609.177,17.0144,0.970763,-3.07823
611.477,17.0901,0.98016,-3.08137
613.777,17.1665,0.977492,-3.08468
616.077,17.2424,0.979092,-3.08812
618.377,17.3185,0.997085,-3.09103
620.677,17.3944,1.00779,-3.09263
622.977,17.4704,1.01352,-3.09489
625.277,17.5469,1.02762,-3.09785
627.577,17.6229,1.02455,-3.10064
629.877,17.699,1.04538,-3.10252
632.177,17.7752,1.05304,-3.10457
634.477,17.8511,1.0636,-3.10772
636.777,17.9273,1.06835,-3.11112
639.077,18.0039,1.07741,-3.11366
641.377,18.0801,1.07862,-3.11533
643.677,18.1563,1.09169,-3.11829
645.977,18.2327,1.08886,-3.11995
648.277,18.3086,1.0813,-3.12123
650.577,18.3849,1.08296,-3.12413
652.877,18.4613,1.07326,-3.12689
655.177,18.5376,1.07453,-3.1304
657.477,18.6136,1.06933,-3.1341
659.777,18.6898,1.06492,-3.13145
662.077,18.7662,1.06268,-3.13442
664.377,18.8428,1.05392,-3.13575
666.677,18.9186,1.04698,-3.1379
668.977,18.9951,1.03043,-3.13961
671.277,19.0711,1.02148,-3.13962
673.577,19.1474,1.00362,-3.14177
675.877,19.2238,0.97612,-3.14416
678.177,19.3002,0.961132,-3.14376
680.477,19.3766,0.926123,-3.14376
682.777,19.4525,0.910495,-3.14509
685.077,19.5287,0.876654,-3.1465
687.377,19.6051,0.855081,-3.14919
689.677,19.6814,0.818426,-3.15213
691.977,19.7576,0.800056,-3.1559
694.277,19.8344,0.772225,-3.15704
696.577,19.9107,0.754699,-3.1579
698.877,19.9869,0.726212,-3.15707
701.177,20.0633,0.698777,-3.15836
703.477,20.1398,0.668547,-3.15967
705.777,20.216,0.636087,-3.16324
708.077,20.2928,0.617681,-3.16386
710.377,20.3694,0.597302,-3.16684
712.677,20.4458,0.568789,-3.17226
714.977,20.5226,0.539093,-3.17347
717.277,20.5992,0.511182,-3.17154
719.577,20.6758,0.4913,-3.17054
721.877,20.7524,0.472362,-3.17147
724.177,20.8292,0.45769,-3.17172
726.477,20.9058,0.427243,-3.17105
728.777,20.9824,0.408225,-3.17319
731.077,21.0595,0.376933,-3.17356
733.377,21.1361,0.361943,-3.17462
735.677,21.2127,0.333621,-3.17791
737.977,21.2897,0.311089,-3.18011
740.077,21.3599,0.294013,-3.18141