File: 01_Data/NFPA_1981-2007_SCBA_Lens/STA/N2/30K_min/NFPA_1981-2007_SCBA_Lens_STA_N2_30KData_240105_R2.csv
Temp./C,Time/min,DSC/(mW/mg),Mass loss/mg
80.938,0.0,1.42074,-0.00496508
83.238,0.124067,1.55304,-0.00129703
85.538,0.238875,1.65236,-0.00266634
87.838,0.347155,1.75591,0.000713374
90.138,0.450071,1.84596,0.0011999
92.438,0.548393,1.92183,-0.000240867
94.738,0.643846,1.99881,0.00138683
97.038,0.737386,2.05493,0.000742227
99.338,0.827617,2.12751,0.00160635
101.638,0.916966,2.18164,0.00405162
103.938,1.00417,2.22656,0.00473273
106.238,1.08973,2.28769,0.00350593
108.538,1.17518,2.32372,0.0049617
110.838,1.25829,2.36703,0.00354016
113.138,1.34155,2.41325,0.00461072
115.438,1.42361,2.43496,0.00359636
117.738,1.50472,2.4844,0.00494655
120.038,1.58635,2.50756,0.00573742
122.338,1.66637,2.55178,0.00495863
124.638,1.74565,2.58889,0.00494012
126.938,1.82437,2.61411,0.00556946
129.238,1.90228,2.64818,0.00497099
131.538,1.98107,2.67665,0.00493351
133.838,2.05841,2.71626,0.00494134
136.138,2.13563,2.75342,0.00399174
138.438,2.21221,2.78594,0.00626493
140.738,2.2883,2.84101,0.00478074
143.038,2.36421,2.90166,0.00538589
145.338,2.44013,3.00168,0.00635569
147.638,2.51566,3.17673,0.00626005
149.938,2.59113,3.3814,0.00760292
152.238,2.66587,3.45615,0.00625995
154.538,2.73996,3.46144,0.00528158
156.838,2.81373,3.47501,0.00661017
159.138,2.88757,3.47708,0.00658004
161.438,2.96136,3.49012,0.00772023
163.738,3.03376,3.50317,0.00757032
166.038,3.10786,3.52324,0.00624327
168.338,3.18149,3.52778,0.00625113
170.638,3.25454,3.5475,0.00756807
172.938,3.32742,3.55325,0.00621462
175.238,3.39964,3.56773,0.00626
177.538,3.47241,3.58783,0.00625999
179.838,3.54452,3.6011,0.0065578
182.138,3.61669,3.61225,0.00758008
184.438,3.68797,3.61773,0.00758008
186.738,3.7605,3.62742,0.00692076
189.038,3.8317,3.63377,0.00693739
191.338,3.90303,3.6528,0.00691693
193.638,3.97464,3.66711,0.00756809
195.938,4.04552,3.67208,0.00889031
198.238,4.1162,3.69018,0.00888973
200.538,4.1868,3.69504,0.00757074
202.838,4.2582,3.70088,0.00757003
205.138,4.32899,3.71775,0.0068434
207.438,4.39933,3.72518,0.00723922
209.738,4.46934,3.738,0.00756926
212.038,4.54025,3.74533,0.00764613
214.338,4.61082,3.75506,0.00625194
216.638,4.6811,3.77231,0.00756838
218.938,4.75162,3.77607,0.00756988
221.238,4.82156,3.77885,0.00658217
223.538,4.89202,3.79097,0.00658
225.838,4.96202,3.78879,0.00657215
228.138,5.03222,3.79899,0.00790032
230.438,5.10265,3.8122,0.0079
232.738,5.1721,3.81303,0.0079
235.038,5.242,3.82057,0.00789998
237.338,5.31222,3.82962,0.00754754
239.638,5.382,3.82999,0.00757
241.938,5.45188,3.83768,0.00757056
244.238,5.52141,3.8436,0.00725034
246.538,5.59131,3.83741,0.0072524
248.838,5.66096,3.84355,0.0075838
251.138,5.73084,3.85308,0.00758002
253.438,5.80031,3.85819,0.00881333
255.738,5.87038,3.85341,0.00626087
258.038,5.93947,3.86793,0.00757816
260.338,6.00978,3.86909,0.00757888
262.638,6.07931,3.87235,0.00691471
264.938,6.14886,3.87648,0.00692
267.238,6.21845,3.87576,0.00692
269.538,6.28845,3.88116,0.00692
271.838,6.35747,3.88492,0.00692
274.138,6.42761,3.88761,0.00692178
276.438,6.49733,3.89213,0.00790903
278.738,6.56715,3.88671,0.00791
281.038,6.63689,3.88518,0.00791001
283.338,6.7068,3.88449,0.007858
285.638,6.7765,3.89055,0.00659007
287.938,6.84636,3.89024,0.00789733
290.238,6.91548,3.88167,0.0065882
292.538,6.98639,3.88595,0.00658403
294.838,7.05561,3.89008,0.00659152
297.138,7.12555,3.8791,0.00790883
299.438,7.1958,3.87647,0.00660965
301.738,7.2657,3.8788,0.00659
304.038,7.3353,3.87643,0.00659
306.338,7.40567,3.87547,0.00658965
308.638,7.47549,3.86578,0.00790003
310.938,7.5454,3.87092,0.0079
313.238,7.6157,3.8641,0.00788991
315.538,7.68559,3.85799,0.00659001
317.838,7.7557,3.8619,0.00659
320.138,7.82578,3.85389,0.00658631
322.438,7.89537,3.84823,0.0079
324.738,7.96615,3.84571,0.00756896
327.038,8.03625,3.83984,0.0065427
329.338,8.10606,3.83752,0.00659
331.638,8.17687,3.82267,0.00628026
333.938,8.24754,3.82192,0.00593028
336.238,8.31782,3.81019,0.0065824
338.538,8.38832,3.79737,0.00659
340.838,8.45859,3.79391,0.00659018
343.138,8.52919,3.78219,0.00526408
345.438,8.59982,3.77203,0.00526431
347.738,8.6701,3.75871,0.00659073
350.038,8.74105,3.74679,0.00381725
352.338,8.81194,3.72829,0.00395001
354.638,8.88246,3.71397,0.00395001
356.938,8.95349,3.70982,0.00386312
359.238,9.02399,3.7022,0.00503769
361.538,9.09552,3.67814,0.00394154
363.838,9.16627,3.67732,0.00263001
366.138,9.23759,3.65309,0.00263
368.438,9.30866,3.65481,0.00263
370.738,9.37964,3.63429,0.00263328
373.038,9.45015,3.62119,0.00131707
375.338,9.52204,3.611,0.00131333
377.638,9.5935,3.60467,0.000664039
379.938,9.66478,3.5996,1.41282e-07
382.238,9.73583,3.60744,9.10372e-12
384.538,9.80749,3.62632,-2.9976e-15
386.838,9.87885,3.67332,-1.93678e-13
389.138,9.95036,3.72912,2.53453e-09
391.438,10.0221,3.76846,-0.000128486
393.738,10.0936,3.79546,-0.00264589
396.038,10.1652,3.82087,-0.00240144
398.338,10.2371,3.82429,-0.00261924
400.638,10.3088,3.84489,-0.00395027
402.938,10.3806,3.84877,-0.00395091
405.238,10.4526,3.85104,-0.00460957
407.538,10.5244,3.85496,-0.00456266
409.838,10.5965,3.83195,-0.00723417
412.138,10.6683,3.81025,-0.00880253
414.438,10.7406,3.79179,-0.00988007
416.738,10.8126,3.76512,-0.0110813
419.038,10.885,3.72373,-0.0115258
421.338,10.957,3.66067,-0.0128389
423.638,11.0294,3.5899,-0.0154414
425.938,11.1016,3.5045,-0.0179062
428.238,11.1737,3.43478,-0.0195792
430.538,11.2463,3.35728,-0.0220772
432.838,11.3184,3.29981,-0.0251785
435.138,11.3911,3.24277,-0.0292532
437.438,11.4634,3.19301,-0.0330027
439.738,11.5361,3.13587,-0.0378891
442.038,11.6083,3.05861,-0.0449449
444.338,11.6809,2.98499,-0.0499593
446.638,11.7535,2.89904,-0.0571326
448.938,11.8259,2.80593,-0.0631826
451.238,11.8981,2.71289,-0.0700275
453.538,11.9712,2.61318,-0.0779339
455.838,12.0437,2.54822,-0.0889794
458.138,12.1164,2.48266,-0.0986348
460.438,12.1891,2.40508,-0.107743
462.738,12.2618,2.32236,-0.121489
465.038,12.3345,2.27036,-0.135382
467.338,12.4075,2.231,-0.152996
469.638,12.4804,2.1649,-0.172563
471.938,12.5537,2.15937,-0.195775
474.238,12.627,2.15414,-0.22317
476.538,12.6994,2.1985,-0.254066
478.838,12.7731,2.27961,-0.292188
481.138,12.8466,2.33703,-0.338032
483.438,12.921,2.42908,-0.390388
485.738,12.9947,2.48579,-0.449554
488.038,13.0685,2.55543,-0.517404
490.338,13.142,2.6024,-0.593766
492.638,13.216,2.68668,-0.678401
494.938,13.29,2.78579,-0.769729
497.238,13.364,2.81631,-0.869078
499.538,13.4371,2.85021,-0.97514
501.838,13.5114,2.77077,-1.08773
504.138,13.5853,2.79519,-1.2037
506.438,13.6587,2.87296,-1.32724
508.738,13.7325,2.87519,-1.45635
511.038,13.8074,2.90002,-1.5885
513.338,13.8815,2.93489,-1.72559
515.638,13.9557,2.90079,-1.86406
517.938,14.0292,2.79204,-2.00166
520.238,14.1027,2.59809,-2.13759
522.538,14.1758,2.31852,-2.26624
524.838,14.2485,1.96008,-2.37992
527.138,14.3208,1.53383,-2.48347
529.438,14.3935,1.11487,-2.57353
531.738,14.4662,0.751399,-2.64805
534.038,14.5391,0.433037,-2.71396
536.338,14.6125,0.195265,-2.76781
538.638,14.6862,0.0186162,-2.80922
540.938,14.7597,-0.117205,-2.8435
543.238,14.8337,-0.195021,-2.87005
545.538,14.908,-0.259776,-2.89228
547.838,14.9825,-0.308013,-2.91063
550.138,15.057,-0.339371,-2.9261
552.438,15.1315,-0.373417,-2.94094
554.738,15.2059,-0.412897,-2.95115
557.038,15.2809,-0.442147,-2.96117
559.338,15.3557,-0.467789,-2.96967
561.638,15.4301,-0.482788,-2.97887
563.938,15.5052,-0.51532,-2.98499
566.238,15.5801,-0.539876,-2.99152
568.538,15.6552,-0.566257,-2.99729
570.838,15.7302,-0.572581,-3.00349
573.138,15.8052,-0.589643,-3.00891
575.438,15.88,-0.601894,-3.01366
577.738,15.9551,-0.616533,-3.01813
580.038,16.0299,-0.626386,-3.02548
582.338,16.1052,-0.633407,-3.03023
584.638,16.1805,-0.643225,-3.03212
586.938,16.2559,-0.661412,-3.03695
589.238,16.3309,-0.676209,-3.04071
591.538,16.4064,-0.681195,-3.04582
593.838,16.4814,-0.689592,-3.05068
596.138,16.5564,-0.683859,-3.05418
598.438,16.632,-0.704469,-3.05758
600.738,16.7077,-0.701277,-3.06219
603.038,16.7832,-0.705572,-3.06511
605.338,16.8587,-0.702651,-3.06929
607.638,16.9339,-0.712113,-3.07367
609.938,17.0098,-0.711433,-3.07612
612.238,17.0853,-0.708163,-3.078
614.538,17.1613,-0.640841,-3.08065
616.838,17.2369,-0.615706,-3.0855
619.138,17.3127,-0.609955,-3.08809
621.438,17.3884,-0.59982,-3.09032
623.738,17.4639,-0.589195,-3.09257
626.038,17.5399,-0.587273,-3.09532
628.338,17.6157,-0.589841,-3.0982
630.638,17.691,-0.578201,-3.10091
632.938,17.7672,-0.560933,-3.10359
635.238,17.8433,-0.557817,-3.10641
637.538,17.9193,-0.540878,-3.10872
639.838,17.9951,-0.527782,-3.1108
642.138,18.0713,-0.522075,-3.11311
644.438,18.1475,-0.514779,-3.11609
646.738,18.2236,-0.51759,-3.11866
649.038,18.2996,-0.507675,-3.11971
651.338,18.3757,-0.497931,-3.11974
653.638,18.4519,-0.489319,-3.12246
655.938,18.5278,-0.487442,-3.12383
658.238,18.604,-0.48517,-3.12774
660.538,18.6804,-0.48293,-3.12913
662.838,18.7565,-0.485704,-3.12905
665.138,18.8322,-0.49338,-3.13027
667.438,18.9092,-0.495776,-3.13174
669.738,18.9856,-0.50283,-3.13368
672.038,19.0621,-0.512002,-3.13565
674.338,19.1384,-0.54173,-3.13699
676.638,19.2142,-0.555182,-3.1396
678.938,19.2914,-0.584893,-3.14231
681.238,19.3682,-0.606894,-3.14283
683.538,19.4444,-0.623427,-3.1448
685.838,19.5205,-0.65243,-3.14533
688.138,19.5976,-0.676032,-3.14729
690.438,19.6738,-0.694496,-3.14859
692.738,19.7503,-0.708292,-3.1499
695.038,19.8268,-0.732716,-3.15061
697.338,19.9036,-0.754953,-3.15253
699.638,19.9802,-0.793749,-3.15516
701.938,20.0565,-0.816686,-3.15649
704.238,20.1332,-0.841544,-3.15781
706.538,20.21,-0.869331,-3.15781
708.838,20.286,-0.890251,-3.15913
711.138,20.3634,-0.905447,-3.15915
713.438,20.44,-0.926621,-3.16036
715.738,20.5166,-0.944844,-3.16176
718.038,20.593,-0.96644,-3.16308
720.338,20.6696,-0.981914,-3.16442
722.638,20.7462,-0.996891,-3.16571
724.938,20.823,-1.02737,-3.16703
727.238,20.8995,-1.04121,-3.16964
729.538,20.9764,-1.05491,-3.17099
731.838,21.053,-1.0695,-3.1723
734.138,21.1296,-1.08246,-3.17329
736.438,21.2064,-1.10024,-3.17437
738.738,21.283,-1.11008,-3.17623
740.038,21.3266,-1.12205,-3.17625