File: 01_Data/Polyisocyanurate_Spray_Foam_Insulation/STA/N2/10K_min/Polyisocyanurate_Spray_Foam_Insulation_STA_N2_10KData_241029_R1.csv
Temp/C,Time/min,Mass loss(subtr.)/mg,DSC(subtr.)/(mW/mg),Sensit./(uV/mW)
25.996,10.005,-0.00439,0.007527587,1.00321
28.996,11.33305,-0.006108897,0.11141,1.00483
31.996,11.7717,-0.00463289,0.15805,1.0064
34.996,12.14465,-0.004281172,0.1844,1.00792
37.996,12.49197,-0.006425286,0.20148,1.0094
40.996,12.82748,-0.00560363,0.21881,1.01083
43.996,13.15745,-0.00655157,0.229,1.01222
46.996,13.48224,-0.007575223,0.23718,1.01357
49.996,13.80202,-0.008897923,0.24654,1.01487
52.996,14.11866,-0.01020542,0.25054,1.01612
55.996,14.43062,-0.01153009,0.25225,1.01733
58.996,14.74136,-0.01156528,0.24791,1.01849
61.996,15.0475,-0.01283414,0.24465,1.01961
64.996,15.35095,-0.01416012,0.23893,1.02068
67.996,15.65161,-0.01547983,0.23617,1.02171
70.996,15.95105,-0.01421299,0.23341,1.0227
73.996,16.2497,-0.0140894,0.23341,1.02364
76.996,16.54821,-0.01656768,0.235,1.02454
79.996,16.84649,-0.01789,0.23677,1.02539
82.996,17.14371,-0.01723986,0.24039,1.0262
85.996,17.44059,-0.01788256,0.24343,1.02697
88.996,17.73644,-0.01921034,0.24611,1.02769
91.996,18.0298,-0.02119,0.24778,1.02837
94.996,18.32486,-0.02150833,0.25272,1.029
97.996,18.61834,-0.02283997,0.25539,1.0296
100.996,18.91065,-0.02547,0.25979,1.03015
103.996,19.20186,-0.02546988,0.2636,1.03065
106.996,19.49341,-0.02811001,0.26797,1.03112
109.996,19.78454,-0.03074,0.27268,1.03154
112.996,20.07457,-0.03205,0.27731,1.03192
115.996,20.36454,-0.03463959,0.28041,1.03226
118.996,20.6546,-0.03733,0.28221,1.03255
121.996,20.94455,-0.03897,0.28945,1.03281
124.996,21.23372,-0.0426182,0.28983,1.03302
127.996,21.52288,-0.04523,0.29168,1.03319
130.996,21.81125,-0.04787,0.29415,1.03332
133.996,22.09889,-0.05038808,0.29901,1.03341
136.996,22.38653,-0.0528,0.30038,1.03346
139.996,22.67376,-0.05544,0.30394,1.03347
142.996,22.96079,-0.05807958,0.30773,1.03343
145.996,23.24797,-0.06203417,0.31149,1.03336
148.996,23.53494,-0.063008,0.31392,1.03325
151.996,23.82155,-0.06432759,0.31794,1.0331
154.996,24.10834,-0.0686145,0.32169,1.03291
157.996,24.39435,-0.06993036,0.32629,1.03268
160.996,24.67958,-0.07322,0.32863,1.03241
163.996,24.96528,-0.07519945,0.33366,1.03211
166.996,25.25048,-0.0788201,0.34025,1.03176
169.996,25.53679,-0.08110476,0.34416,1.03138
172.996,25.82178,-0.08575,0.34966,1.03096
175.996,26.10617,-0.08869996,0.35434,1.0305
178.996,26.39051,-0.09336333,0.35775,1.03001
181.996,26.67513,-0.09792259,0.3587,1.02948
184.996,26.95843,-0.1032,0.36442,1.02891
187.996,27.24263,-0.1111,0.36896,1.02831
190.996,27.52615,-0.11773,0.37393,1.02767
193.996,27.81027,-0.12299,0.38072,1.02699
196.996,28.09411,-0.13158,0.38587,1.02628
199.996,28.37847,-0.14251,0.39206,1.02553
202.996,28.66223,-0.15095,0.39903,1.02475
205.996,28.94642,-0.16088,0.4048,1.02394
208.996,29.22982,-0.17224,0.41092,1.02309
211.996,29.51341,-0.1849,0.4165,1.0222
214.996,29.79691,-0.19321,0.42103,1.02129
217.996,30.08073,-0.20549,0.42052,1.02034
220.996,30.36388,-0.21684,0.42272,1.01935
223.996,30.64717,-0.2281,0.42176,1.01834
226.996,30.92983,-0.23691,0.42009,1.01729
229.996,31.21342,-0.24796,0.42122,1.01621
232.996,31.49739,-0.25904,0.4177,1.01509
235.996,31.78181,-0.26739,0.41727,1.01395
238.996,32.06519,-0.27359,0.41567,1.01278
241.996,32.35015,-0.27885,0.41557,1.01157
244.996,32.6339,-0.28477,0.41735,1.01033
247.996,32.91863,-0.28982,0.4196,1.00907
250.996,33.20203,-0.29477,0.4222,1.00777
253.996,33.48654,-0.29889,0.42633,1.00645
256.996,33.77129,-0.303,0.42947,1.00509
259.996,34.05553,-0.30761,0.43492,1.00371
262.996,34.34032,-0.31156,0.44025,1.0023
265.996,34.62562,-0.3172,0.44755,1.00086
268.996,34.91125,-0.32249,0.45697,0.99939
271.996,35.1971,-0.33279,0.47189,0.9979
274.996,35.48328,-0.33906,0.48852,0.99638
277.996,35.76919,-0.35028,0.50527,0.99483
280.996,36.0557,-0.36208,0.52588,0.99326
283.996,36.34265,-0.37459,0.54795,0.99166
286.996,36.63082,-0.39215,0.57225,0.99003
289.996,36.91925,-0.4105,0.59141,0.98838
292.996,37.20922,-0.4309,0.60834,0.9867
295.996,37.49878,-0.45377,0.62612,0.985
298.996,37.78662,-0.48041,0.63834,0.98328
301.996,38.07415,-0.50929,0.64335,0.98153
304.996,38.36035,-0.53941,0.64587,0.97976
307.996,38.64635,-0.57481,0.64109,0.97797
310.996,38.93126,-0.61127,0.63723,0.97615
313.996,39.21681,-0.65194,0.63056,0.97431
316.996,39.5028,-0.69643,0.6209,0.97245
319.996,39.78857,-0.7439,0.61054,0.97056
322.996,40.07513,-0.79594,0.59852,0.96866
325.996,40.36174,-0.85069,0.58475,0.96673
328.996,40.64807,-0.91228,0.57199,0.96479
331.996,40.93521,-0.98296,0.55646,0.96282
334.996,41.22223,-1.05994,0.53803,0.96083
337.996,41.5096,-1.14313,0.51778,0.95883
340.996,41.79757,-1.2387,0.49219,0.9568
343.996,42.08437,-1.34267,0.4624,0.95476
346.996,42.37112,-1.45131,0.42958,0.9527
349.996,42.65775,-1.56457,0.38557,0.95062
352.996,42.94373,-1.67797,0.32837,0.94852
355.996,43.22997,-1.78934,0.26722,0.94641
358.996,43.51485,-1.89459,0.20325,0.94427
361.996,43.80093,-1.9884,0.1451,0.94212
364.996,44.08752,-2.0775,0.09951511,0.93996
367.996,44.37493,-2.15303,0.06525883,0.93778
370.996,44.66229,-2.21919,0.04712581,0.93558
373.996,44.95014,-2.27373,0.04397882,0.93337
376.996,45.23825,-2.32358,0.04532296,0.93114
379.996,45.52728,-2.36044,0.04940602,0.9289
382.996,45.81713,-2.39478,0.05520488,0.92665
385.996,46.108,-2.42378,0.06330027,0.92438
388.996,46.39953,-2.44902,0.0659393,0.9221
391.996,46.69114,-2.46943,0.0721176,0.9198
394.996,46.98357,-2.48936,0.06910317,0.91749
397.996,47.27514,-2.50778,0.06770367,0.91517
400.996,47.56755,-2.52365,0.06840172,0.91284
403.996,47.85944,-2.53852,0.06590552,0.91049
406.996,48.15133,-2.55469,0.06212066,0.90814
409.996,48.44348,-2.56847,0.07361369,0.90577
412.996,48.73638,-2.58087,0.0790378,0.90339
415.996,49.02842,-2.59472,0.07403646,0.901
418.996,49.3205,-2.60833,0.05712874,0.8986
421.996,49.61238,-2.62054,0.056342,0.8962
424.996,49.90547,-2.63236,0.07546552,0.89378
427.996,50.19777,-2.64512,0.06486865,0.89135
430.996,50.49083,-2.65784,0.05071123,0.88892
433.996,50.78331,-2.67176,0.05008831,0.88647
436.996,51.07581,-2.68319,0.05081771,0.88402
439.996,51.36844,-2.69522,0.04956081,0.88156
442.996,51.66118,-2.70878,0.04715939,0.87909
445.996,51.9532,-2.72274,0.04410755,0.87662
448.996,52.24635,-2.73707,0.04225796,0.87414
451.996,52.53964,-2.7499,0.04086178,0.87165
454.996,52.83324,-2.76352,0.03871581,0.86915
457.996,53.12783,-2.77712,0.03952513,0.86665
460.996,53.42167,-2.79031,0.03550426,0.86415
463.996,53.71626,-2.80778,0.03559612,0.86164
466.996,54.01106,-2.81891,0.03464703,0.85912
469.996,54.30545,-2.83591,0.03596194,0.8566
472.996,54.60027,-2.84963,0.03287329,0.85407
475.996,54.89555,-2.86543,0.0295443,0.85154
478.996,55.19083,-2.87949,0.02741707,0.84901
481.996,55.48616,-2.89376,0.02555549,0.84647
484.996,55.78264,-2.90833,0.02785797,0.84393
487.996,56.07823,-2.92267,0.02699805,0.84139
490.996,56.3739,-2.93569,0.05284456,0.83884
493.996,56.66963,-2.948,0.06274923,0.8363
496.996,56.96494,-2.95953,0.06295336,0.83375
499.996,57.26126,-2.96891,0.06332,0.83119
502.996,57.55817,-2.98072,0.05614914,0.82864
505.996,57.85535,-2.98873,0.05230543,0.82608
508.996,58.1531,-2.99847,0.053074,0.82353
511.996,58.45089,-3.00818,0.04931343,0.82097
514.996,58.74796,-3.01549,0.0573895,0.81841
517.996,59.04522,-3.02278,0.08164551,0.81585
520.996,59.34202,-3.02935,0.09027226,0.81329
523.996,59.63904,-3.0356,0.08833473,0.81073
526.996,59.93727,-3.04272,0.08277975,0.80818
529.996,60.23457,-3.04846,0.0724299,0.80562
532.996,60.53138,-3.05373,0.05644199,0.80306
535.996,60.829,-3.05965,0.05159419,0.80051
538.996,61.12677,-3.06458,0.04922711,0.79795
541.996,61.42447,-3.06986,0.03927971,0.7954
544.996,61.72226,-3.07249,0.02484028,0.79285
547.996,62.01886,-3.07772,-0.03438661,0.7903
550.996,62.31598,-3.0804,-0.08925691,0.78775
553.996,62.61429,-3.08304,-0.11808,0.78521
556.996,62.91303,-3.087,-0.13549,0.78267
559.996,63.2119,-3.09192,-0.15064,0.78013
562.996,63.51101,-3.09565,-0.15515,0.77759
565.996,63.81023,-3.09852,-0.16443,0.77506
568.996,64.10963,-3.09983,-0.17272,0.77253
571.996,64.41138,-3.1028,-0.18116,0.77
574.996,64.7132,-3.10541,-0.19267,0.76748
577.996,65.01484,-3.10806,-0.20302,0.76496
580.996,65.31611,-3.11037,-0.21829,0.76245
583.996,65.61768,-3.11168,-0.24547,0.75994
586.996,65.91915,-3.11366,-0.2587,0.75744
589.996,66.21928,-3.11432,-0.266,0.75494
592.996,66.51971,-3.11627,-0.2602,0.75244
595.996,66.82038,-3.11696,-0.25171,0.74995
598.996,67.12101,-3.12091,-0.23939,0.74747
601.996,67.42174,-3.12223,-0.22966,0.74499
604.996,67.72292,-3.12323,-0.21719,0.74251
607.996,68.02372,-3.12486,-0.2106,0.74005
610.996,68.32542,-3.12618,-0.20477,0.73758
613.996,68.62592,-3.12717,-0.19912,0.73513
616.996,68.92776,-3.12881,-0.19009,0.73268
619.996,69.22975,-3.13011,-0.18536,0.73023
622.996,69.53177,-3.1321,-0.18306,0.7278
625.996,69.83409,-3.1321,-0.17767,0.72537
628.996,70.13728,-3.13342,-0.17229,0.72294
631.996,70.43977,-3.13463,-0.16851,0.72053
634.996,70.74248,-3.13726,-0.15917,0.71812
637.996,71.04484,-3.13694,-0.15045,0.71571
640.996,71.34737,-3.1376,-0.1475,0.71332
643.996,71.64934,-3.1399,-0.14752,0.71093
646.996,71.9522,-3.14023,-0.14513,0.70855
649.996,72.25511,-3.1432,-0.14368,0.70617
652.996,72.55812,-3.14418,-0.13874,0.70381
655.996,72.86078,-3.14319,-0.13764,0.70145
658.996,73.16322,-3.14484,-0.13886,0.6991
661.996,73.46601,-3.14485,-0.13232,0.69675
664.996,73.7693,-3.14518,-0.13451,0.69442
667.996,74.07328,-3.1478,-0.12918,0.69209
670.996,74.37748,-3.14847,-0.13406,0.68977
673.996,74.68153,-3.14913,-0.13476,0.68746
676.996,74.98492,-3.15044,-0.13481,0.68516
679.996,75.28767,-3.15044,-0.1336,0.68287
682.996,75.59083,-3.15209,-0.13746,0.68058
685.996,75.89438,-3.15307,-0.13816,0.67831
688.996,76.19786,-3.15571,-0.13895,0.67604
691.996,76.50156,-3.15626,-0.14154,0.67378
694.996,76.80612,-3.15702,-0.14068,0.67153
697.996,77.10963,-3.1567,-0.1443,0.66929
700.996,77.41331,-3.16197,-0.15212,0.66706
701.796,77.49427,-3.16197,-0.154,0.66646