File: 01_Data/Polyisocyanurate_Spray_Foam_Insulation/STA/N2/10K_min/Polyisocyanurate_Spray_Foam_Insulation_STA_N2_10KData_241029_R2.csv
Temp/C,Time/min,Mass loss(subtr.)/mg,DSC(subtr.)/(mW/mg),Sensit./(uV/mW)
26.064,10.005,-0.0303,0.004257027,1.00325
29.064,11.34606,-0.03101614,0.10678,1.00486
32.064,11.78548,-0.03363687,0.15542,1.00643
35.064,12.15799,-0.03326578,0.18216,1.00796
38.064,12.50573,-0.03192718,0.20132,1.00943
41.064,12.84356,-0.03416188,0.21336,1.01087
44.064,13.17375,-0.03600552,0.22243,1.01225
47.064,13.4993,-0.03568051,0.23081,1.0136
50.064,13.81962,-0.03472829,0.23837,1.01489
53.064,14.13622,-0.03732588,0.24282,1.01615
56.064,14.44872,-0.03732599,0.24238,1.01735
59.064,14.75821,-0.03976659,0.24134,1.01852
62.064,15.06374,-0.03862304,0.23679,1.01963
65.064,15.3678,-0.04128451,0.23042,1.02071
68.064,15.66919,-0.03962238,0.22737,1.02174
71.064,15.9688,-0.03997402,0.22394,1.02272
74.064,16.26743,-0.04138266,0.22194,1.02366
77.064,16.56606,-0.04129,0.22156,1.02456
80.064,16.86377,-0.0426,0.22585,1.02541
83.064,17.16051,-0.04392069,0.22757,1.02622
86.064,17.45743,-0.04391,0.23083,1.02698
89.064,17.75271,-0.04523,0.2337,1.02771
92.064,18.04782,-0.0459,0.23635,1.02838
95.064,18.34166,-0.04653408,0.24156,1.02902
98.064,18.63445,-0.04787,0.24294,1.02961
101.064,18.9271,-0.0518194,0.24596,1.03016
104.064,19.21853,-0.05314001,0.2489,1.03066
107.064,19.50937,-0.05446,0.25151,1.03113
110.064,19.80086,-0.05577,0.25787,1.03155
113.064,20.09147,-0.05950228,0.26226,1.03193
116.064,20.38191,-0.06038753,0.26376,1.03226
119.064,20.67215,-0.06335227,0.26643,1.03256
122.064,20.96228,-0.06729514,0.26878,1.03281
125.064,21.25172,-0.06861989,0.26976,1.03302
128.064,21.54091,-0.07163685,0.27576,1.03319
131.064,21.82924,-0.07520402,0.27698,1.03332
134.064,22.11756,-0.07670442,0.28121,1.03341
137.064,22.40502,-0.07916,0.28477,1.03346
140.064,22.69228,-0.0818,0.2879,1.03347
143.064,22.97816,-0.08475257,0.28823,1.03343
146.064,23.26639,-0.08889611,0.29155,1.03336
149.064,23.55245,-0.08969938,0.29404,1.03325
152.064,23.83875,-0.09234,0.29997,1.0331
155.064,24.12466,-0.09595341,0.30469,1.03291
158.064,24.41047,-0.09891983,0.30792,1.03268
161.064,24.69691,-0.10156,0.31347,1.03241
164.064,24.98226,-0.10419,0.31872,1.0321
167.064,25.26777,-0.10781,0.3236,1.03176
170.064,25.55316,-0.10978,0.3267,1.03137
173.064,25.83878,-0.11341,0.33053,1.03095
176.064,26.1234,-0.1173,0.33349,1.03049
179.064,26.40919,-0.12164,0.33552,1.03
182.064,26.69415,-0.12819,0.34255,1.02947
185.064,26.97917,-0.13219,0.34724,1.0289
188.064,27.26361,-0.14003,0.35046,1.02829
191.064,27.54781,-0.14667,0.35596,1.02765
194.064,27.83177,-0.15337,0.36187,1.02698
197.064,28.11585,-0.16239,0.36533,1.02626
200.064,28.40001,-0.1705,0.37198,1.02552
203.064,28.6842,-0.18157,0.37842,1.02474
206.064,28.96818,-0.18994,0.38656,1.02392
209.064,29.25228,-0.20112,0.39399,1.02307
212.064,29.53638,-0.21322,0.40088,1.02218
215.064,29.82108,-0.22405,0.40506,1.02127
218.064,30.10479,-0.23692,0.40698,1.02031
221.064,30.38879,-0.24741,0.40549,1.01933
224.064,30.67229,-0.25668,0.40408,1.01831
227.064,30.95526,-0.26832,0.39846,1.01726
230.064,31.23802,-0.27641,0.39714,1.01618
233.064,31.52135,-0.28499,0.39527,1.01507
236.064,31.80422,-0.29112,0.39191,1.01392
239.064,32.08761,-0.30115,0.39031,1.01275
242.064,32.37129,-0.30739,0.3903,1.01154
245.064,32.65461,-0.312,0.39351,1.01031
248.064,32.93851,-0.31859,0.39664,1.00904
251.064,33.22299,-0.32117,0.39771,1.00774
254.064,33.50737,-0.32518,0.40296,1.00642
257.064,33.79197,-0.33007,0.40621,1.00506
260.064,34.07654,-0.33424,0.41075,1.00368
263.064,34.36119,-0.34099,0.41518,1.00227
266.064,34.64617,-0.34494,0.42069,1.00083
269.064,34.93178,-0.35284,0.42988,0.99936
272.064,35.21774,-0.35978,0.43835,0.99787
275.064,35.50404,-0.3691,0.4526,0.99634
278.064,35.79022,-0.37865,0.46893,0.9948
281.064,36.07711,-0.39302,0.49032,0.99322
284.064,36.36379,-0.40666,0.5091,0.99162
287.064,36.6499,-0.42255,0.53278,0.98999
290.064,36.93665,-0.44169,0.55389,0.98834
293.064,37.223,-0.46228,0.57206,0.98667
296.064,37.50897,-0.48625,0.58493,0.98497
299.064,37.79474,-0.51342,0.59388,0.98324
302.064,38.08023,-0.54145,0.60171,0.98149
305.064,38.36617,-0.57442,0.60206,0.97972
308.064,38.6521,-0.60946,0.59458,0.97792
311.064,38.93909,-0.64891,0.58458,0.97611
314.064,39.22544,-0.69168,0.57621,0.97427
317.064,39.5124,-0.73677,0.562,0.9724
320.064,39.79939,-0.78438,0.55085,0.97052
323.064,40.08608,-0.8353,0.53492,0.96862
326.064,40.373,-0.89261,0.52201,0.96669
329.064,40.6598,-0.95694,0.50773,0.96474
332.064,40.94698,-1.02754,0.48878,0.96278
335.064,41.23424,-1.10609,0.47044,0.96079
338.064,41.52066,-1.18906,0.44907,0.95878
341.064,41.80738,-1.28764,0.42422,0.95676
344.064,42.09368,-1.39024,0.39478,0.95471
347.064,42.37998,-1.50007,0.35968,0.95265
350.064,42.66488,-1.61454,0.31717,0.95057
353.064,42.94947,-1.72974,0.26226,0.94847
356.064,43.23395,-1.84286,0.19859,0.94636
359.064,43.519,-1.94642,0.13284,0.94423
362.064,43.80498,-2.04514,0.07254038,0.94208
365.064,44.09224,-2.13127,0.02498575,0.93991
368.064,44.38081,-2.20548,-0.005705692,0.93773
371.064,44.66981,-2.27171,-0.0205444,0.93553
374.064,44.96005,-2.32533,-0.02933247,0.93332
377.064,45.25034,-2.37249,-0.03109096,0.93109
380.064,45.54057,-2.41091,-0.03024414,0.92885
383.064,45.83099,-2.44317,-0.02747199,0.9266
386.064,46.12226,-2.47003,-0.02429448,0.92433
389.064,46.41379,-2.49482,-0.02305278,0.92204
392.064,46.70483,-2.51488,-0.02259385,0.91975
395.064,46.9952,-2.53624,-0.01542823,0.91744
398.064,47.28632,-2.55369,-0.002443881,0.91512
401.064,47.57729,-2.57014,-0.009769405,0.91278
404.064,47.86843,-2.58578,-0.01330528,0.91044
407.064,48.15961,-2.59967,-0.03140339,0.90808
410.064,48.45092,-2.61327,-0.01763742,0.90571
413.064,48.74277,-2.62687,-0.03584085,0.90334
416.064,49.03506,-2.6415,-0.04889578,0.90095
419.064,49.32784,-2.6522,-0.03094871,0.89855
422.064,49.62018,-2.6639,-0.04897883,0.89614
425.064,49.91258,-2.67852,-0.06115058,0.89372
428.064,50.20579,-2.69055,-0.05539964,0.8913
431.064,50.4988,-2.70235,-0.05297261,0.88886
434.064,50.79256,-2.71505,-0.03519363,0.88642
437.064,51.08645,-2.72726,-0.06290386,0.88396
440.064,51.38015,-2.73832,-0.05859616,0.8815
443.064,51.67354,-2.75129,-0.04846524,0.87904
446.064,51.96762,-2.76512,-0.05378817,0.87656
449.064,52.26189,-2.77742,-0.05265119,0.87408
452.064,52.55653,-2.78969,-0.04000217,0.87159
455.064,52.85118,-2.8051,-0.05336655,0.8691
458.064,53.14549,-2.81604,-0.05293396,0.8666
461.064,53.4392,-2.82957,-0.0483797,0.86409
464.064,53.73366,-2.8412,-0.03704755,0.86158
467.064,54.02779,-2.85681,-0.03511339,0.85906
470.064,54.32232,-2.87004,-0.03482942,0.85654
473.064,54.61718,-2.88207,-0.03356887,0.85402
476.064,54.91252,-2.89408,-0.03404547,0.85149
479.064,55.20785,-2.90782,-0.03637905,0.84895
482.064,55.50265,-2.91988,-0.03395637,0.84642
485.064,55.79799,-2.93251,-0.03612232,0.84388
488.064,56.09318,-2.94529,-0.03873601,0.84133
491.064,56.38874,-2.95591,-0.04138374,0.83879
494.064,56.68473,-2.96579,-0.03900904,0.83624
497.064,56.98136,-2.97232,-0.01976876,0.83369
500.064,57.27768,-2.98149,0.004288644,0.83114
503.064,57.57344,-2.99216,0.01845563,0.82858
506.064,57.87029,-2.99886,0.02210067,0.82603
509.064,58.16773,-3.00745,0.02717742,0.82347
512.064,58.465,-3.01497,0.02814135,0.82091
515.064,58.76202,-3.02299,0.02231714,0.81835
518.064,59.05932,-3.03133,0.01572561,0.81579
521.064,59.35563,-3.038,0.007171959,0.81324
524.064,59.65259,-3.04331,-0.002708946,0.81068
527.064,59.94934,-3.05019,0.006001895,0.80812
530.064,60.24638,-3.05779,-0.003348962,0.80556
533.064,60.5446,-3.06336,-0.01089184,0.803
536.064,60.84231,-3.06735,-0.0257335,0.80045
539.064,61.13724,-3.0726,-0.13882,0.79789
542.064,61.43576,-3.07787,-0.17672,0.79534
545.064,61.73468,-3.08249,-0.18532,0.79279
548.064,62.03341,-3.08677,-0.19748,0.79024
551.064,62.3319,-3.09051,-0.21338,0.7877
554.064,62.63053,-3.09468,-0.22161,0.78515
557.064,62.93049,-3.09698,-0.22733,0.78261
560.064,63.23073,-3.10127,-0.23621,0.78007
563.064,63.53071,-3.10388,-0.24983,0.77753
566.064,63.83076,-3.10915,-0.25904,0.775
569.064,64.13072,-3.11048,-0.26504,0.77247
572.064,64.43053,-3.11344,-0.27666,0.76995
575.064,64.73031,-3.11478,-0.29251,0.76743
578.064,65.02934,-3.12,-0.36057,0.76491
581.064,65.32688,-3.11982,-0.42546,0.76239
584.064,65.62734,-3.12245,-0.4327,0.75989
587.064,65.92781,-3.12377,-0.43966,0.75738
590.064,66.22879,-3.1264,-0.42965,0.75488
593.064,66.53037,-3.12772,-0.40611,0.75239
596.064,66.83205,-3.12911,-0.38358,0.7499
599.064,67.13378,-3.13167,-0.36297,0.74741
602.064,67.43549,-3.13298,-0.33856,0.74493
605.064,67.73643,-3.13519,-0.32547,0.74246
608.064,68.03739,-3.13727,-0.3231,0.73999
611.064,68.33996,-3.13858,-0.31639,0.73753
614.064,68.64253,-3.13991,-0.31336,0.73507
617.064,68.94473,-3.13991,-0.30705,0.73262
620.064,69.24693,-3.14254,-0.30212,0.73018
623.064,69.5488,-3.14386,-0.3019,0.72774
626.064,69.8511,-3.14353,-0.30055,0.72531
629.064,70.15319,-3.1455,-0.29826,0.72289
632.064,70.45614,-3.14782,-0.29216,0.72047
635.064,70.75783,-3.14781,-0.29045,0.71806
638.064,71.05955,-3.14912,-0.29111,0.71566
641.064,71.3603,-3.14814,-0.28799,0.71326
644.064,71.66189,-3.15078,-0.29172,0.71087
647.064,71.96341,-3.15341,-0.28652,0.70849
650.064,72.26505,-3.15374,-0.28263,0.70612
653.064,72.56821,-3.15341,-0.28066,0.70375
656.064,72.87126,-3.15472,-0.27986,0.70139
659.064,73.17465,-3.15604,-0.28023,0.69904
662.064,73.4783,-3.15703,-0.27997,0.6967
665.064,73.78153,-3.15736,-0.27878,0.69437
668.064,74.08395,-3.15867,-0.28211,0.69204
671.064,74.38795,-3.16076,-0.28303,0.68972
674.064,74.69123,-3.16077,-0.28351,0.68741
677.064,74.99455,-3.16241,-0.28672,0.68511
680.064,75.29792,-3.1634,-0.29027,0.68282
683.064,75.60125,-3.16406,-0.28827,0.68053
686.064,75.90478,-3.16472,-0.28997,0.67826
689.064,76.20786,-3.16506,-0.29335,0.67599
692.064,76.51052,-3.16603,-0.29559,0.67373
695.064,76.8132,-3.16833,-0.2981,0.67148
698.064,77.11594,-3.16965,-0.29866,0.66924
701.064,77.41904,-3.16999,-0.3038,0.66701
701.864,77.50114,-3.16999,-0.30092,0.66641