File: 01_Data/Neoprene_SCBA_Face_Seal/STA/N2/10K_min/Neoprene_SCBA_Face_Seal_STA_N2_10KData_250911_R1.csv
Temp./C,Time/min,DSC/(mW/mg),Mass loss/mg
40.0,0.0,0.698906,-0.0206567
42.6,0.347467,0.770177,-0.0181727
45.2,0.677522,0.817789,-0.0193819
47.8,0.996814,0.869766,-0.0203333
50.4,1.30596,0.904907,-0.0191776
53,1.60697,0.959157,-0.0201261
55.6,1.90031,1.0331,-0.0220729
58.2,2.18942,1.12228,-0.0218512
60.8,2.47223,1.10533,-0.0243693
63.4,2.74747,1.09007,-0.0234755
66,3.02305,1.11373,-0.0256997
68.6,3.2913,1.12061,-0.0256722
71.2,3.56136,1.15119,-0.0255955
73.8,3.82722,1.17433,-0.0270061
76.4,4.09165,1.18919,-0.0276623
79,4.3536,1.20911,-0.0283209
81.6,4.6177,1.22546,-0.0297071
84.2,4.87541,1.23149,-0.02964
86.8,5.13495,1.24061,-0.02963
89.4,5.38845,1.26038,-0.0296624
92,5.64722,1.25558,-0.03095
94.6,5.90167,1.25378,-0.030992
97.2,6.15567,1.24219,-0.0322633
99.8,6.40567,1.22768,-0.0322676
102.4,6.65699,1.23934,-0.0322698
105,6.90771,1.23039,-0.032284
107.6,7.15941,1.23769,-0.03227
110.2,7.40846,1.24231,-0.0334068
112.8,7.65818,1.23775,-0.0343341
115.4,7.90823,1.25053,-0.03358
118,8.15596,1.24786,-0.0349147
120.6,8.40656,1.24604,-0.0348999
123.2,8.65494,1.25668,-0.0349
125.8,8.90413,1.2585,-0.0372944
128.4,9.15168,1.25825,-0.03491
131,9.40048,1.26466,-0.036219
133.6,9.64696,1.2639,-0.0363076
136.2,9.89439,1.26996,-0.0375392
138.8,10.141,1.28362,-0.0373405
141.4,10.3872,1.27309,-0.0368791
144,10.6337,1.27464,-0.0379522
146.6,10.8791,1.27697,-0.03688
149.2,11.1236,1.27421,-0.0365538
151.8,11.3683,1.28089,-0.0365498
154.4,11.6154,1.27208,-0.0378938
157,11.86,1.28381,-0.0384744
159.6,12.1055,1.28011,-0.0369127
162.2,12.3499,1.29015,-0.03919
164.8,12.595,1.28461,-0.0391898
167.4,12.8394,1.28486,-0.0404921
170,13.0833,1.28832,-0.0414902
172.6,13.3302,1.2898,-0.0405001
175.2,13.5752,1.29172,-0.0418204
177.8,13.8201,1.29333,-0.0411168
180.4,14.0636,1.30476,-0.04248
183,14.3109,1.30243,-0.0424801
185.6,14.5548,1.29438,-0.0441349
188.2,14.7989,1.30796,-0.04413
190.8,15.0443,1.30611,-0.04676
193.4,15.2889,1.30297,-0.0480789
196,15.5336,1.30329,-0.05071
198.6,15.7766,1.30087,-0.050709
201.2,16.0216,1.31125,-0.05105
203.8,16.2659,1.31299,-0.053675
206.4,16.5109,1.32051,-0.0563825
209,16.7549,1.32486,-0.05631
211.6,17.0005,1.32356,-0.0602656
214.2,17.2448,1.32512,-0.0628975
216.8,17.4898,1.32296,-0.0644236
219.4,17.7331,1.32308,-0.0695326
222,17.9791,1.32575,-0.0724352
224.6,18.2244,1.31794,-0.0774012
227.2,18.467,1.31159,-0.0803142
229.8,18.7143,1.31816,-0.0857295
232.4,18.9591,1.30843,-0.0897511
235,19.2048,1.30382,-0.0962711
237.6,19.4496,1.3044,-0.102846
240.2,19.695,1.29949,-0.109086
242.8,19.9407,1.30392,-0.116143
245.4,20.1864,1.29845,-0.122899
248,20.4332,1.28781,-0.131897
250.6,20.6783,1.28667,-0.139148
253.2,20.9235,1.27715,-0.148638
255.8,21.1695,1.28145,-0.157557
258.4,21.4161,1.27678,-0.167046
261,21.6625,1.27075,-0.177511
263.6,21.9084,1.25986,-0.188978
266.2,22.1511,1.25083,-0.198902
268.8,22.399,1.24826,-0.212303
271.4,22.6472,1.22592,-0.222263
274,22.8941,1.21287,-0.23195
276.6,23.1395,1.20667,-0.244481
279.2,23.3852,1.18508,-0.254031
281.8,23.6327,1.17164,-0.265374
284.4,23.8807,1.15364,-0.277981
287,24.1265,1.1239,-0.289613
289.6,24.3733,1.11039,-0.297785
292.2,24.6203,1.08904,-0.307505
294.8,24.8682,1.08148,-0.318329
297.4,25.1144,1.05122,-0.32674
300,25.3613,1.017,-0.33565
302.6,25.6085,0.993479,-0.345055
305.2,25.8531,0.959362,-0.352306
307.8,26.1031,0.932346,-0.35916
310.4,26.35,0.891873,-0.367293
313,26.5972,0.855762,-0.375217
315.6,26.845,0.814186,-0.382888
318.2,27.0934,0.779658,-0.391403
320.8,27.34,0.723079,-0.399681
323.4,27.5884,0.679105,-0.4072
326,27.8364,0.608431,-0.418073
328.6,28.084,0.538221,-0.426794
331.2,28.3321,0.464808,-0.436618
333.8,28.5799,0.397952,-0.44882
336.4,28.8274,0.315618,-0.462513
339,29.0747,0.211775,-0.476956
341.6,29.324,0.10461,-0.493229
344.2,29.5711,0.0047476,-0.512545
346.8,29.8213,-0.120429,-0.532921
349.4,30.07,-0.231515,-0.55732
352,30.3184,-0.313094,-0.586387
354.6,30.5674,-0.409758,-0.61686
357.2,30.8151,-0.490895,-0.652625
359.8,31.0674,-0.564753,-0.697006
362.4,31.3147,-0.606926,-0.745592
365,31.5664,-0.621406,-0.803529
367.6,31.818,-0.61159,-0.866989
370.2,32.0693,-0.571318,-0.938311
372.8,32.3209,-0.51118,-1.0151
375.4,32.5731,-0.429277,-1.10039
378,32.826,-0.333765,-1.19424
380.6,33.0791,-0.248646,-1.29069
383.2,33.3321,-0.135759,-1.38764
385.8,33.584,-0.0360684,-1.48473
388.4,33.8365,0.056085,-1.57806
391,34.0895,0.136306,-1.66882
393.6,34.3417,0.202844,-1.75269
396.2,34.597,0.241936,-1.83159
398.8,34.8495,0.296566,-1.90107
401.4,35.1014,0.339101,-1.96395
404,35.355,0.357229,-2.02158
406.6,35.6086,0.378162,-2.07253
409.2,35.861,0.398794,-2.11961
411.8,36.1147,0.420541,-2.16422
414.4,36.3679,0.434819,-2.20694
417,36.6218,0.462631,-2.24838
419.6,36.8745,0.494771,-2.28776
422.2,37.1294,0.506952,-2.32552
424.8,37.3834,0.531127,-2.36567
427.4,37.6371,0.552277,-2.40427
430,37.8907,0.59154,-2.44352
432.6,38.146,0.615743,-2.48689
435.2,38.3992,0.643022,-2.52837
437.8,38.6569,0.666412,-2.57264
440.4,38.9107,0.681098,-2.61831
443,39.1666,0.697579,-2.66346
445.6,39.4211,0.733093,-2.70938
448.2,39.6737,0.745646,-2.75697
450.8,39.9315,0.766558,-2.8064
453.4,40.1846,0.777966,-2.85693
456,40.4405,0.772706,-2.90704
458.6,40.695,0.76115,-2.95749
461.2,40.9505,0.747912,-3.00907
463.8,41.2057,0.730576,-3.05796
466.4,41.46,0.680489,-3.10586
469,41.7149,0.625236,-3.15104
471.6,41.9696,0.54888,-3.19273
474.2,42.2241,0.461317,-3.22786
476.8,42.4787,0.354087,-3.25747
479.4,42.7347,0.226814,-3.28167
482,42.9882,0.115778,-3.30056
484.6,43.2439,0.0209848,-3.31532
487.2,43.4984,-0.0408214,-3.32093
489.8,43.7557,-0.0963012,-3.32628
492.4,44.0118,-0.135649,-3.33025
495,44.2665,-0.166052,-3.33559
497.6,44.5221,-0.188076,-3.33673
500.2,44.7776,-0.199803,-3.33848
502.8,45.0347,-0.210472,-3.3398
505.4,45.2906,-0.220345,-3.34115
508,45.5483,-0.226206,-3.34243
510.6,45.8047,-0.227969,-3.34375
513.2,46.0627,-0.233662,-3.34449
515.8,46.3204,-0.240748,-3.34574
518.4,46.5782,-0.243757,-3.34671
521,46.8358,-0.237307,-3.34737
523.6,47.0928,-0.23195,-3.34737
526.2,47.3506,-0.224932,-3.34746
528.8,47.6079,-0.218289,-3.34804
531.4,47.8642,-0.22963,-3.3487
534,48.1223,-0.238989,-3.34731
536.6,48.3795,-0.252877,-3.34836
539.2,48.6377,-0.265804,-3.34938
541.8,48.8966,-0.295769,-3.34935
544.4,49.1546,-0.305954,-3.35001
547,49.4144,-0.318932,-3.34935
549.6,49.6716,-0.327492,-3.35067
552.2,49.9311,-0.335445,-3.34935
554.8,50.1899,-0.346326,-3.35067
557.4,50.4489,-0.347117,-3.35067
560,50.708,-0.361798,-3.35067
562.6,50.9667,-0.36437,-3.34936
565.2,51.2262,-0.368651,-3.35074
567.8,51.4847,-0.369363,-3.351
570.4,51.7447,-0.38198,-3.35067
573,52.0044,-0.385418,-3.35166
575.6,52.2638,-0.394045,-3.35037
578.2,52.5232,-0.399591,-3.35199
580.8,52.7803,-0.398122,-3.35129
583.4,53.0412,-0.408542,-3.35232
586,53.3004,-0.402716,-3.35166
588.6,53.5598,-0.398486,-3.35324
591.2,53.8198,-0.401038,-3.352
593.8,54.0782,-0.409327,-3.351
596.4,54.3369,-0.415054,-3.35231
599,54.5987,-0.420666,-3.35373
601.6,54.8588,-0.421201,-3.35496
604.2,55.1199,-0.42427,-3.35495
606.8,55.3804,-0.429312,-3.35364
609.4,55.6409,-0.439788,-3.35432
612,55.9021,-0.445117,-3.35506
614.6,56.163,-0.437491,-3.35506
617.2,56.423,-0.450437,-3.35407
619.8,56.6834,-0.448464,-3.35506
622.4,56.9434,-0.450158,-3.35473
625,57.204,-0.462642,-3.35605
627.6,57.465,-0.467814,-3.35604
630.2,57.7255,-0.471766,-3.35703
632.8,57.9867,-0.472802,-3.35637
635.4,58.2461,-0.46537,-3.35736
638,58.5094,-0.470893,-3.35704
640.6,58.7689,-0.474712,-3.35671
643.2,59.031,-0.4727,-3.35571
645.8,59.2935,-0.474115,-3.35572
648.4,59.555,-0.47325,-3.35704
651,59.8155,-0.471308,-3.35703
653.6,60.0764,-0.470039,-3.35835
656.2,60.3391,-0.480104,-3.35606
658.8,60.5996,-0.468528,-3.35737
661.4,60.8609,-0.470061,-3.35737
664,61.1241,-0.47893,-3.35737
666.6,61.3853,-0.467672,-3.35641
669.2,61.6471,-0.468779,-3.35769
671.8,61.9102,-0.469661,-3.3577
674.4,62.171,-0.474996,-3.3577
677,62.4333,-0.474634,-3.3579
679.6,62.6961,-0.482805,-3.35835
682.2,62.9572,-0.477673,-3.35864
684.8,63.2209,-0.488998,-3.35902
687.4,63.4828,-0.477231,-3.3577
690,63.7449,-0.483468,-3.36033
692.6,64.0068,-0.491982,-3.35934
695.2,64.2694,-0.480076,-3.35862
697.8,64.5312,-0.482693,-3.35967
700.4,64.7928,-0.498168,-3.35967
703,65.058,-0.489177,-3.35934
705.6,65.3205,-0.487568,-3.36092
708.2,65.5829,-0.488157,-3.35935
710.8,65.8478,-0.479504,-3.36
713.4,66.1101,-0.492303,-3.35967
716,66.3732,-0.4934,-3.36034
718.6,66.6372,-0.497537,-3.36068
721.2,66.9008,-0.502709,-3.36066
723.8,67.1645,-0.497371,-3.36048
726.4,67.4284,-0.495953,-3.36056
729,67.6917,-0.498593,-3.36056
731.6,67.9553,-0.499061,-3.36055
734.2,68.2185,-0.490542,-3.3612
736.8,68.4827,-0.498515,-3.34615
739.4,68.7447,-0.502044,-3.3521
742,69.0102,-0.510243,-3.35638
744.6,69.2721,-0.520482,-3.35901
747.2,69.5353,-0.548755,-3.36263
749.8,69.7972,-0.55421,-3.36198
752.4,70.0611,-0.561268,-3.36419
755,70.3239,-0.572912,-3.36395
757.6,70.5875,-0.557037,-3.36396
760.2,70.8514,-0.564259,-3.36431
762.8,71.115,-0.582154,-3.36527
765.4,71.3779,-0.579929,-3.36296
768,71.6411,-0.563477,-3.36692
770.6,71.9042,-0.564416,-3.3656
773.2,72.1682,-0.566345,-3.36724
775.8,72.4317,-0.572974,-3.36708
778.4,72.6944,-0.573328,-3.36757
781,72.9591,-0.580301,-3.36626
783.6,73.2223,-0.594434,-3.36626
786.2,73.4867,-0.590479,-3.3656
788.8,73.7493,-0.595114,-3.36762
790,73.8721,-0.602486,-3.36757